title:19                                                                              , recorded:06.11.20 11.26.50, sampling:128, subject:19                                                                              , labels:COUNTER INTERPOLATED AF3 F7 F3 FC5 T7 P7 O1 O2 P8 T8 FC6 F4 F8 AF4 RAW_CQ GYROX GYROY MARKER SYNC TIME_STAMP_s TIME_STAMP_ms CQ_AF3 CQ_F7 CQ_F3 CQ_FC5 CQ_T7 CQ_P7 CQ_O1 CQ_O2 CQ_P8 CQ_T8 CQ_FC6 CQ_F4 CQ_F8 CQ_AF4 CQ_CMS CQ_DRL, chan:39, units:emotiv,,,,,,,,,,,,,,,,,,,,,,,,,,,,,,,,
126,0,4200,4185.12793,4174.358887,4171.794922,4161.025391,4127.692383,4127.692383,4126.666504,4134.871582,4134.871582,4136.410156,4137.436035,4145.641113,4166.666504,756,2124,2049,0,0,675,533,0,0,0,0,0,0,0,0,0,0,0,0,0,0,0,0
127,0,4198.461426,4192.307617,4174.358887,4185.641113,4141.538574,4122.05127,4139.487305,4137.94873,4146.666504,4133.333008,4141.025391,4145.641113,4145.641113,4165.641113,722,2108,2054,0,0,675,535,0,0,0,0,0,0,0,0,0,0,0,0,0,0,0,0
128,0,4196.922852,4198.461426,4177.436035,4185.641113,4154.871582,4126.666504,4140,4141.538574,4152.307617,4136.410156,4150.256348,4149.743652,4155.897461,4169.230469,828,2101,2056,0,0,675,542,0,0,4,0,0,0,0,0,0,0,0,0,0,0,4,4
0,0,4191.794922,4186.153809,4181.538574,4174.871582,4150.769043,4123.07666,4129.230469,4139.487305,4154.871582,4145.12793,4156.922852,4150.256348,4164.102539,4171.794922,585,2084,2063,0,0,675,550,0,0,4,0,0,0,0,0,0,0,0,0,0,0,4,4
1,0,4184.102539,4177.94873,4175.384277,4172.820313,4141.025391,4123.589844,4123.07666,4124.615234,4142.05127,4141.538574,4141.538574,4140.512695,4151.281738,4161.025391,788,2077,2064,0,0,675,564,0,0,4,4,0,0,0,0,0,0,0,0,0,0,4,4
2,0,4178.461426,4177.436035,4166.666504,4174.871582,4171.794922,4138.461426,4130.769043,4118.974121,4133.333008,4131.794922,4122.05127,4132.820313,4129.743652,4149.230469,805,2062,2064,0,0,675,566,4,0,4,4,0,0,0,0,0,0,0,0,0,0,4,4
3,0,4183.589844,4180.512695,4174.358887,4182.05127,4177.94873,4139.487305,4138.974121,4139.487305,4154.871582,4142.563965,4140.512695,4145.12793,4143.589844,4158.974121,860,2055,2062,0,0,675,574,4,4,4,4,0,0,0,0,0,0,0,0,0,0,4,4
4,0,4186.153809,4176.922852,4184.102539,4182.563965,4152.820313,4135.384277,4142.563965,4160,4176.410156,4162.563965,4170.256348,4162.05127,4174.358887,4175.384277,819,2047,2063,0,0,675,582,4,4,4,4,4,0,0,0,0,0,0,0,0,0,4,4
5,0,4173.846191,4161.538574,4176.922852,4167.692383,4153.846191,4147.692383,4141.025391,4155.384277,4171.281738,4158.974121,4165.641113,4156.410156,4170.769043,4167.692383,723,2038,2065,0,0,675,596,4,4,4,4,4,4,0,0,0,0,0,0,0,0,4,4
6,0,4166.666504,4155.384277,4173.846191,4165.12793,4158.974121,4155.897461,4138.461426,4148.717773,4167.692383,4152.307617,4152.820313,4144.615234,4156.410156,4155.384277,731,2033,2065,0,0,675,598,4,4,4,4,4,4,4,0,0,0,0,0,0,0,4,4
7,0,4166.666504,4157.94873,4180,4173.333008,4178.461426,4148.717773,4143.07666,4152.307617,4171.794922,4153.846191,4155.384277,4145.12793,4156.410156,4156.922852,754,2027,2062,0,0,675,606,4,4,4,4,4,4,4,4,0,0,0,0,0,0,4,4
8,0,4156.922852,4152.307617,4176.922852,4166.666504,4191.281738,4144.102539,4145.641113,4145.12793,4160,4144.615234,4143.07666,4133.846191,4141.538574,4147.179199,633,2025,2059,0,0,675,614,4,4,4,4,4,4,4,4,4,0,0,0,0,0,4,4
9,0,4146.153809,4148.205078,4167.179199,4159.487305,4162.563965,4142.563965,4138.461426,4138.461426,4156.410156,4152.307617,4132.820313,4121.025391,4125.641113,4133.846191,816,2021,2054,0,0,675,629,4,4,4,4,4,4,4,4,4,4,0,0,0,0,4,4
10,0,4150.256348,4152.820313,4171.794922,4163.07666,4152.307617,4139.487305,4141.538574,4148.717773,4170.256348,4172.820313,4148.717773,4132.307617,4140.512695,4143.589844,812,2019,2053,0,0,675,629,4,4,4,4,4,4,4,4,4,4,0,0,4,0,4,4
11,0,4157.94873,4152.820313,4183.589844,4169.230469,4183.07666,4143.07666,4153.846191,4154.871582,4170.256348,4161.025391,4160,4145.12793,4154.358887,4151.794922,722,2016,2051,0,0,675,637,4,4,4,4,4,4,4,4,4,4,0,0,4,4,4,4
12,0,4155.384277,4139.487305,4185.12793,4167.692383,4186.153809,4141.538574,4149.230469,4146.666504,4161.538574,4141.025391,4154.871582,4142.05127,4144.102539,4141.538574,828,2015,2051,0,0,675,645,4,4,4,4,4,4,4,4,4,4,4,0,4,4,4,4
13,0,4141.025391,4133.333008,4184.615234,4158.974121,4142.05127,4135.897461,4137.94873,4140.512695,4163.07666,4146.666504,4150.256348,4134.871582,4132.307617,4134.358887,787,2014,2048,0,0,675,659,4,4,4,4,4,4,4,4,4,4,4,4,4,4,4,4
14,0,4126.666504,4137.436035,4181.538574,4153.333008,4136.922852,4147.179199,4136.922852,4134.358887,4157.94873,4154.871582,4142.563965,4124.102539,4127.179199,4131.794922,812,2013,2047,0,0,675,661,4,4,4,4,4,4,4,4,4,4,4,4,4,4,4,4
15,0,4127.179199,4137.436035,4180.512695,4153.846191,4171.794922,4157.94873,4142.563965,4130.256348,4148.205078,4153.333008,4141.538574,4119.487305,4127.179199,4127.692383,722,2011,2048,0,0,675,669,4,4,4,4,4,4,4,4,4,4,4,4,4,4,4,4
16,0,4140.512695,4140,4189.230469,4160.512695,4188.205078,4147.179199,4148.717773,4140.512695,4162.05127,4166.666504,4153.333008,4134.871582,4138.974121,4138.974121,0,2012,2049,0,0,675,676,4,4,4,4,4,4,4,4,4,4,4,4,4,4,4,4
17,0,4141.538574,4141.025391,4194.871582,4158.974121,4188.205078,4147.692383,4147.179199,4145.12793,4170.769043,4169.230469,4146.666504,4136.922852,4138.461426,4139.487305,0,2012,2049,0,0,675,690,4,4,4,4,4,4,4,4,4,4,4,4,4,4,4,4
18,0,4130.256348,4137.436035,4191.281738,4152.820313,4172.820313,4158.974121,4137.436035,4135.897461,4157.436035,4149.230469,4130.256348,4120,4122.05127,4120.512695,0,2013,2048,0,0,675,692,4,4,4,4,4,4,4,4,4,4,4,4,4,4,4,4
19,0,4132.307617,4141.025391,4194.871582,4154.871582,4159.487305,4154.871582,4134.358887,4135.897461,4155.384277,4142.05127,4133.333008,4121.538574,4120,4125.641113,0,2015,2047,0,0,675,700,4,4,4,4,4,4,4,4,4,4,4,4,4,4,4,4
20,0,4136.922852,4138.461426,4200,4155.897461,4170.256348,4153.333008,4138.974121,4142.05127,4161.538574,4142.563965,4141.538574,4132.820313,4126.153809,4140.512695,0,2022,2041,0,0,675,708,4,4,4,4,4,4,4,4,4,4,4,4,4,4,4,4
21,0,4132.820313,4132.307617,4195.384277,4152.307617,4196.410156,4153.333008,4140,4139.487305,4155.897461,4141.538574,4137.436035,4127.692383,4127.692383,4130.256348,0,2026,2039,0,0,675,722,4,4,4,4,4,4,4,4,4,4,4,4,4,4,4,4
22,0,4134.871582,4145.12793,4194.871582,4158.974121,4194.871582,4141.025391,4140.512695,4138.974121,4158.461426,4155.384277,4133.333008,4121.538574,4135.384277,4126.153809,0,2033,2036,0,0,675,724,4,4,4,4,4,4,4,4,4,4,4,4,4,4,4,4
23,0,4141.025391,4154.358887,4203.589844,4171.794922,4152.307617,4141.538574,4142.563965,4141.025391,4171.794922,4169.230469,4136.410156,4129.743652,4141.025391,4137.436035,0,2037,2033,0,0,675,732,4,4,4,4,4,4,4,4,4,4,4,4,4,4,4,4
24,0,4142.563965,4149.230469,4210.769043,4174.871582,4129.743652,4157.436035,4141.538574,4139.487305,4169.743652,4149.230469,4142.563965,4139.487305,4137.94873,4136.922852,0,2045,2032,0,0,675,739,4,4,4,4,4,4,4,4,4,4,4,4,4,4,4,4
25,0,4138.974121,4149.743652,4210.256348,4166.153809,4166.153809,4160.512695,4140,4135.384277,4161.538574,4132.820313,4138.461426,4138.461426,4133.846191,4130.769043,0,2049,2034,0,0,675,753,4,4,4,4,4,4,4,4,4,4,4,4,4,4,4,4
26,0,4135.897461,4144.615234,4206.153809,4154.871582,4191.281738,4146.666504,4140,4135.897461,4164.615234,4146.666504,4136.410156,4135.384277,4138.974121,4136.922852,0,2054,2039,0,0,675,755,4,4,4,4,4,4,4,4,4,4,4,4,4,4,4,4
27,0,4139.487305,4146.666504,4209.230469,4158.974121,4157.94873,4137.436035,4141.025391,4138.461426,4166.153809,4153.846191,4142.05127,4137.436035,4146.666504,4144.102539,0,2058,2042,0,0,675,763,4,4,4,4,4,4,4,4,4,4,4,4,4,4,4,4
28,0,4153.846191,4181.025391,4214.358887,4176.922852,4144.615234,4140.512695,4135.384277,4130.256348,4156.410156,4143.589844,4128.717773,4133.846191,4136.922852,4142.563965,0,2062,2050,0,0,675,771,4,4,4,4,4,4,4,4,4,4,4,4,4,4,4,4
29,0,4163.589844,4213.846191,4216.410156,4188.717773,4164.102539,4146.153809,4123.589844,4115.384277,4143.07666,4126.666504,4109.743652,4118.461426,4114.358887,4129.743652,0,2065,2053,0,0,675,785,4,4,4,4,4,4,4,4,4,4,4,4,4,4,4,4
30,0,4167.692383,4233.333008,4219.487305,4194.358887,4156.922852,4144.615234,4120.512695,4109.743652,4135.897461,4102.05127,4102.05127,4107.179199,4097.94873,4116.922852,0,2066,2054,0,0,675,787,4,4,4,4,4,4,4,4,4,4,4,4,4,4,4,4
31,0,4176.410156,4268.205078,4221.025391,4208.717773,4163.07666,4142.05127,4123.589844,4109.230469,4133.846191,4089.743408,4083.076904,4104.615234,4078.974365,4113.846191,0,2068,2048,0,0,675,795,4,4,4,4,4,4,4,4,4,4,4,4,4,4,4,4
32,0,4183.07666,4294.871582,4218.974121,4225.12793,4174.871582,4139.487305,4120,4108.205078,4130.769043,4102.563965,4066.153809,4106.153809,4060,4111.794922,0,2070,2047,0,0,675,803,4,4,4,4,4,4,4,4,4,4,4,4,4,4,4,4
33,0,4184.102539,4307.179199,4213.333008,4232.820313,4155.384277,4137.436035,4118.461426,4108.717773,4126.666504,4106.153809,4071.281982,4105.12793,4057.94873,4107.692383,0,2069,2048,0,0,675,818,4,4,4,4,4,4,4,4,4,4,4,4,4,4,4,4
34,0,4184.615234,4330.769043,4207.179199,4233.846191,4166.666504,4142.563965,4118.974121,4098.974121,4118.461426,4084.102539,4068.717773,4095.897217,4052.307617,4102.05127,0,2071,2049,0,0,675,818,4,4,4,4,4,4,4,4,4,4,4,4,4,4,4,4
35,0,4185.12793,4347.692383,4207.692383,4238.461426,4190.256348,4141.025391,4109.743652,4087.692139,4113.846191,4070.769043,4057.435791,4089.230713,4040,4095.897217,0,2070,2058,0,0,675,826,4,4,4,4,4,4,4,4,4,4,4,4,4,4,4,4
36,0,4185.641113,4349.230469,4214.358887,4249.230469,4166.666504,4134.358887,4102.05127,4086.153809,4115.897461,4076.410156,4051.281982,4087.179443,4031.281982,4088.205078,0,2069,2060,0,0,675,834,4,4,4,4,4,4,4,4,4,4,4,4,4,4,4,4
37,0,4186.666504,4347.692383,4215.384277,4248.205078,4154.871582,4135.897461,4105.641113,4090.256348,4117.94873,4095.897217,4040.512695,4084.102539,4023.5896,4084.102539,0,2069,2060,0,0,675,848,4,4,4,4,4,4,4,4,4,4,4,4,4,4,4,4
38,0,4182.563965,4341.538574,4210.769043,4236.410156,4179.487305,4138.461426,4109.743652,4098.461426,4120.512695,4094.358887,4040,4084.102539,4021.53833,4087.179443,0,2069,2057,0,0,675,850,4,4,4,4,4,4,4,4,4,4,4,4,4,4,4,4
39,0,4170.769043,4329.743652,4204.615234,4230.769043,4174.358887,4137.436035,4109.743652,4101.538574,4121.025391,4067.692139,4049.743408,4084.615234,4020.512695,4083.5896,0,2069,2053,0,0,675,858,4,4,4,4,4,4,4,4,4,4,4,4,4,4,4,4
40,0,4164.615234,4324.615234,4201.025391,4231.794922,4154.358887,4135.897461,4108.205078,4092.820313,4111.281738,4062.563965,4049.743408,4082.563965,4020,4078.461426,0,2068,2052,0,0,675,866,4,4,4,4,4,4,4,4,4,4,4,4,4,4,4,4
41,0,4168.717773,4321.025391,4204.615234,4230.769043,4172.307617,4133.846191,4106.666504,4086.153809,4103.07666,4086.153809,4053.845947,4091.794678,4032.820313,4085.640869,0,2066,2052,0,0,675,881,4,4,4,4,4,4,4,4,4,4,4,4,4,4,4,4
42,0,4170.769043,4310.256348,4208.717773,4227.692383,4171.794922,4137.94873,4106.153809,4091.794678,4110.769043,4099.487305,4064.615234,4105.12793,4047.692139,4096.410156,0,2066,2053,0,0,675,881,4,4,4,4,4,4,4,4,4,4,4,4,4,4,4,4
43,0,4168.205078,4310.769043,4210.256348,4229.230469,4132.307617,4137.94873,4110.256348,4097.436035,4120,4091.281982,4064.615234,4105.12793,4044.102539,4094.871582,0,2065,2053,0,0,675,889,4,4,4,4,4,4,4,4,4,4,4,4,4,4,4,4
44,0,4170.769043,4324.102539,4210.769043,4234.358887,4128.205078,4126.153809,4116.410156,4106.666504,4120,4084.615234,4067.692139,4105.12793,4042.05127,4094.871582,0,2064,2052,0,0,675,897,4,4,4,4,4,4,4,4,4,4,4,4,4,4,4,4
45,0,4172.820313,4324.102539,4211.281738,4233.333008,4178.461426,4124.102539,4123.07666,4118.461426,4121.538574,4090.256348,4071.794678,4105.12793,4051.281982,4099.487305,0,2063,2050,0,0,675,911,4,4,4,4,4,4,4,4,4,4,4,4,4,4,4,4
46,0,4168.717773,4314.871582,4210.256348,4229.230469,4180,4136.922852,4125.641113,4117.436035,4123.589844,4100.512695,4063.076904,4098.974121,4051.281982,4097.94873,0,2061,2048,0,0,675,913,4,4,4,4,4,4,4,4,4,4,4,4,4,4,4,4
47,0,4166.153809,4316.922852,4208.205078,4229.743652,4131.281738,4143.589844,4126.153809,4106.666504,4120,4088.717773,4058.974365,4098.974121,4043.5896,4095.384521,0,2063,2046,0,0,675,921,4,4,4,4,4,4,4,4,4,4,4,4,4,4,4,4
48,0,4168.717773,4316.922852,4207.692383,4227.179199,4155.384277,4143.07666,4128.717773,4107.692383,4123.07666,4077.435791,4069.743408,4106.153809,4047.179443,4097.436035,0,2061,2045,0,0,675,929,4,4,4,4,4,4,4,4,4,4,4,4,4,4,4,4
49,0,4170.769043,4306.666504,4206.666504,4217.94873,4202.05127,4142.05127,4136.922852,4127.692383,4137.94873,4107.692383,4078.974365,4108.205078,4061.025635,4106.153809,0,2060,2046,0,0,675,943,4,4,4,4,4,4,4,4,4,4,4,4,4,4,4,4
50,0,4164.102539,4309.743652,4200,4217.436035,4173.333008,4141.538574,4141.025391,4135.384277,4143.07666,4125.12793,4071.794678,4100.512695,4059.487061,4104.102539,0,2058,2047,0,0,675,944,4,4,4,4,4,4,4,4,4,4,4,4,4,4,4,4
51,0,4152.307617,4312.307617,4191.794922,4219.487305,4144.102539,4143.07666,4133.333008,4126.666504,4137.436035,4093.333252,4068.205078,4089.743408,4048.717773,4086.666504,0,2058,2048,0,0,675,952,4,4,4,4,4,4,4,4,4,4,4,4,4,4,4,4
52,0,4148.205078,4300,4186.666504,4208.205078,4170.256348,4142.563965,4126.666504,4126.153809,4142.05127,4087.692139,4070.769043,4082.563965,4050.256348,4075.384521,0,2056,2047,0,0,675,960,4,4,4,4,4,4,4,4,4,4,4,4,4,4,4,4
53,0,4151.281738,4297.436035,4184.615234,4203.07666,4175.897461,4137.94873,4124.615234,4121.538574,4138.461426,4109.743652,4057.435791,4077.435791,4046.153809,4074.871582,0,2053,2046,0,0,675,974,4,4,4,4,4,4,4,4,4,4,4,4,4,4,4,4
54,0,4152.820313,4300.512695,4187.692383,4212.820313,4143.589844,4138.461426,4122.563965,4110.769043,4127.692383,4102.563965,4048.205078,4078.974365,4041.53833,4080.512695,0,2051,2046,0,0,675,976,4,4,4,4,4,4,4,4,4,4,4,4,4,4,4,4
55,0,4156.922852,4301.025391,4194.871582,4218.974121,4145.641113,4143.589844,4125.12793,4118.461426,4133.846191,4087.692139,4075.384521,4095.897217,4058.461426,4097.436035,0,2047,2047,0,0,675,984,4,4,4,4,4,4,4,4,4,4,4,4,4,4,4,4
56,0,4162.563965,4308.717773,4196.922852,4219.487305,4172.820313,4143.07666,4125.641113,4120.512695,4134.358887,4087.179443,4095.384521,4105.641113,4068.205078,4109.743652,0,2046,2048,0,0,675,992,4,4,4,4,4,4,4,4,4,4,4,4,4,4,4,4
57,0,4161.538574,4306.153809,4192.307617,4212.307617,4168.717773,4136.410156,4121.025391,4103.07666,4121.025391,4086.666504,4074.358887,4098.974121,4053.845947,4103.589844,0,2042,2051,0,0,676,6,4,4,4,4,4,4,4,4,4,4,4,4,4,4,4,4
58,0,4164.102539,4292.307617,4192.820313,4208.205078,4136.922852,4137.436035,4124.102539,4103.589844,4117.94873,4091.281982,4058.461426,4100.512695,4046.666504,4096.922852,0,2038,2055,0,0,676,7,4,4,4,4,4,4,4,4,4,4,4,4,4,4,4,4
59,0,4169.743652,4291.281738,4201.538574,4213.333008,4133.846191,4143.07666,4129.743652,4109.230469,4114.871582,4087.179443,4065.128174,4108.205078,4055.384521,4094.358887,0,2036,2055,0,0,676,15,4,4,4,4,4,4,4,4,4,4,4,4,4,4,4,4
60,0,4165.12793,4295.384277,4204.102539,4213.333008,4157.94873,4142.05127,4128.717773,4102.05127,4101.025391,4076.923096,4064.615234,4107.179199,4054.871582,4094.358887,0,2033,2056,0,0,676,23,4,4,4,4,4,4,4,4,4,4,4,4,4,4,4,4
61,0,4162.05127,4288.717773,4203.07666,4208.205078,4154.358887,4137.94873,4133.846191,4112.307617,4107.179199,4088.717773,4061.53833,4106.666504,4056.410156,4104.102539,0,2028,2056,0,0,676,37,4,4,4,4,4,4,4,4,4,4,4,4,4,4,4,4
62,0,4164.615234,4283.07666,4203.07666,4208.717773,4147.179199,4138.974121,4141.025391,4130.769043,4123.07666,4100.512695,4075.384521,4111.281738,4075.384521,4110.769043,0,2025,2056,0,0,676,39,4,4,4,4,4,4,4,4,4,4,4,4,4,4,4,4
63,0,4164.615234,4283.589844,4201.538574,4210.769043,4162.563965,4139.487305,4136.922852,4126.153809,4123.589844,4103.589844,4083.5896,4115.384277,4094.871582,4109.230469,0,2020,2054,0,0,676,47,4,4,4,4,4,4,4,4,4,4,4,4,4,4,4,4
64,0,4167.692383,4286.666504,4197.436035,4209.743652,4148.717773,4135.897461,4135.384277,4119.487305,4126.153809,4112.820313,4074.871582,4119.487305,4101.538574,4114.871582,585,2019,2053,0,0,676,55,4,4,4,4,4,4,4,4,4,4,4,4,4,4,4,4
65,0,4174.358887,4286.153809,4200,4213.846191,4121.538574,4141.538574,4140.512695,4128.717773,4139.487305,4115.897461,4081.53833,4123.07666,4110.256348,4125.641113,796,2017,2051,0,0,676,69,4,4,4,4,4,4,4,4,4,4,4,4,4,4,4,4
66,0,4173.333008,4285.12793,4202.563965,4214.871582,4147.692383,4148.205078,4133.333008,4129.230469,4141.538574,4109.743652,4091.794678,4114.871582,4112.820313,4121.538574,805,2016,2049,0,0,676,71,4,4,4,4,4,4,4,4,4,4,4,4,4,4,4,4
67,0,4166.666504,4292.820313,4192.307617,4211.281738,4188.205078,4143.07666,4126.153809,4120,4131.281738,4107.692383,4076.410156,4097.94873,4090.769043,4106.153809,857,2017,2051,0,0,676,78,4,4,4,4,4,4,4,4,4,4,4,4,4,4,4,4
68,0,4163.07666,4295.384277,4184.102539,4209.743652,4175.897461,4143.589844,4133.846191,4115.384277,4128.717773,4114.358887,4060,4088.717773,4080.512695,4098.461426,822,2016,2053,0,0,676,86,4,4,4,4,4,4,4,4,4,4,4,4,4,4,4,4
69,0,4165.641113,4289.230469,4186.666504,4208.717773,4133.846191,4152.820313,4140.512695,4117.436035,4131.794922,4124.102539,4076.410156,4100,4104.615234,4110.769043,723,2016,2054,0,0,676,100,4,4,4,4,4,4,4,4,4,4,4,4,4,4,4,4
70,0,4171.281738,4290.256348,4193.846191,4209.743652,4143.07666,4153.333008,4140,4119.487305,4129.743652,4111.281738,4096.410156,4113.333008,4117.94873,4126.153809,731,2015,2055,0,0,676,102,4,4,4,4,4,4,4,4,4,4,4,4,4,4,4,4
71,0,4172.307617,4289.743652,4194.358887,4207.692383,4186.666504,4144.615234,4137.436035,4114.871582,4121.025391,4085.128174,4085.128174,4110.256348,4100.512695,4117.94873,758,2017,2057,0,0,676,110,4,4,4,4,4,4,4,4,4,4,4,4,4,4,4,4
72,0,4167.692383,4277.94873,4191.794922,4204.615234,4160.512695,4137.436035,4134.871582,4110.256348,4115.897461,4093.845947,4064.615234,4104.615234,4088.205078,4103.589844,632,2019,2057,0,0,676,118,4,4,4,4,4,4,4,4,4,4,4,4,4,4,4,4
73,0,4168.205078,4273.333008,4193.846191,4206.153809,4105.12793,4143.589844,4136.410156,4116.410156,4118.974121,4106.666504,4070.769043,4107.179199,4093.333252,4103.589844,816,2018,2058,0,0,676,132,4,4,4,4,4,4,4,4,4,4,4,4,4,4,4,4
74,0,4173.333008,4278.974121,4195.897461,4204.102539,4136.922852,4150.769043,4141.025391,4123.07666,4122.05127,4087.179443,4084.615234,4112.307617,4092.820313,4112.307617,820,2019,2058,0,0,676,134,4,4,4,4,4,4,4,4,4,4,4,4,4,4,4,4
75,0,4178.974121,4280,4195.384277,4202.05127,4184.102539,4144.615234,4137.436035,4122.05127,4126.153809,4093.333252,4073.845947,4114.871582,4087.179443,4117.436035,720,2021,2058,0,0,676,141,4,4,4,4,4,4,4,4,4,4,4,4,4,4,4,4
76,0,4188.717773,4279.487305,4200,4206.153809,4162.05127,4139.487305,4135.897461,4127.692383,4134.871582,4120.512695,4066.666504,4120.512695,4094.358887,4124.102539,828,2022,2057,0,0,676,149,4,4,4,4,4,4,4,4,4,4,4,4,4,4,4,4
77,0,4202.563965,4290.769043,4211.281738,4215.897461,4136.922852,4144.102539,4141.025391,4140,4142.05127,4120,4083.5896,4132.307617,4107.179199,4135.384277,787,2024,2055,0,0,676,163,4,4,4,4,4,4,4,4,4,4,4,4,4,4,4,4
78,0,4206.153809,4295.384277,4213.333008,4218.461426,4141.538574,4147.692383,4140.512695,4142.563965,4140.512695,4110.769043,4095.384521,4140,4113.333008,4141.025391,820,2025,2050,0,0,676,165,4,4,4,4,4,4,4,4,4,4,4,4,4,4,4,4
79,0,4204.615234,4284.102539,4203.07666,4213.333008,4146.666504,4149.230469,4138.461426,4137.94873,4138.974121,4106.153809,4096.410156,4136.922852,4114.358887,4137.94873,720,2025,2048,0,0,676,173,4,4,4,4,4,4,4,4,4,4,4,4,4,4,4,4
80,0,4207.179199,4282.563965,4197.436035,4209.230469,4151.281738,4152.307617,4142.05127,4130.769043,4138.974121,4101.025391,4094.871582,4127.692383,4110.769043,4135.897461,828,2027,2045,0,0,676,181,4,4,4,4,4,4,4,4,4,4,4,4,4,4,4,4
81,0,4215.897461,4295.897461,4198.461426,4212.820313,4160,4151.281738,4143.07666,4123.589844,4132.307617,4111.281738,4084.102539,4121.025391,4104.102539,4137.436035,787,2028,2045,0,0,676,195,4,4,4,4,4,4,4,4,4,4,4,4,4,4,4,4
82,0,4225.12793,4301.538574,4202.05127,4218.974121,4145.641113,4153.333008,4139.487305,4120,4126.666504,4119.487305,4069.743408,4120.512695,4094.358887,4136.410156,820,2029,2046,0,0,676,197,4,4,4,4,4,4,4,4,4,4,4,4,4,4,4,4
83,0,4230.769043,4296.410156,4205.641113,4218.974121,4129.230469,4150.256348,4139.487305,4118.461426,4124.102539,4104.102539,4073.845947,4125.12793,4089.743408,4137.94873,720,2029,2047,0,0,676,204,4,4,4,4,4,4,4,4,4,4,4,4,4,4,4,4
84,0,4246.153809,4298.461426,4204.102539,4217.94873,4158.461426,4140,4136.922852,4117.94873,4126.153809,4097.94873,4095.897217,4135.897461,4111.794922,4157.436035,828,2029,2049,0,0,676,212,4,4,4,4,4,4,4,4,4,4,4,4,4,4,4,4
85,0,4285.641113,4295.384277,4206.153809,4217.436035,4172.820313,4144.102539,4138.974121,4126.153809,4130.769043,4120.512695,4119.487305,4152.307617,4153.333008,4196.410156,787,2029,2049,0,0,676,226,4,4,4,4,4,4,4,4,4,4,4,4,4,4,4,4
86,0,4332.307617,4286.153809,4217.436035,4218.461426,4129.230469,4152.820313,4148.717773,4144.102539,4141.538574,4152.307617,4147.692383,4177.94873,4191.794922,4237.94873,820,2031,2049,0,0,676,228,4,4,4,4,4,4,4,4,4,4,4,4,4,4,4,4
87,0,4355.897461,4274.358887,4226.153809,4218.461426,4118.461426,4149.230469,4156.410156,4155.384277,4150.256348,4161.538574,4174.871582,4200.512695,4226.666504,4264.102539,720,2031,2050,0,0,676,236,4,4,4,4,4,4,4,4,4,4,4,4,4,4,4,4
88,0,4364.102539,4251.281738,4225.641113,4210.256348,4159.487305,4151.794922,4156.922852,4154.871582,4151.794922,4141.538574,4195.384277,4210.769043,4256.410156,4280.512695,828,2029,2050,0,0,676,244,4,4,4,4,4,4,4,4,4,4,4,4,4,4,4,4
89,0,4366.666504,4221.025391,4224.615234,4197.94873,4170.769043,4162.05127,4157.436035,4153.333008,4158.461426,4148.205078,4206.666504,4216.410156,4268.717773,4294.358887,787,2030,2052,0,0,676,258,4,4,4,4,4,4,4,4,4,4,4,4,4,4,4,4
90,0,4358.461426,4192.820313,4224.615234,4184.615234,4153.846191,4160.512695,4161.025391,4161.025391,4168.205078,4194.358887,4218.461426,4227.179199,4283.07666,4307.179199,820,2029,2055,0,0,676,260,4,4,4,4,4,4,4,4,4,4,4,4,4,4,4,4
91,0,4342.563965,4171.794922,4222.05127,4174.358887,4122.563965,4150.769043,4164.102539,4168.717773,4168.717773,4212.307617,4232.307617,4235.897461,4306.153809,4314.871582,720,2030,2062,0,0,676,267,4,4,4,4,4,4,4,4,4,4,4,4,4,4,4,4
92,0,4323.07666,4149.743652,4217.94873,4171.281738,4093.845947,4152.820313,4167.692383,4169.230469,4167.179199,4196.922852,4237.436035,4234.871582,4314.871582,4310.256348,828,2028,2062,0,0,676,275,4,4,4,4,4,4,4,4,4,4,4,4,4,4,4,4
93,0,4308.205078,4124.615234,4214.871582,4164.102539,4133.333008,4159.487305,4164.615234,4167.179199,4172.307617,4182.563965,4238.974121,4235.384277,4310.256348,4301.538574,787,2026,2063,0,0,676,289,4,4,4,4,4,4,4,4,4,4,4,4,4,4,4,4
94,0,4297.436035,4106.666504,4214.871582,4146.666504,4176.410156,4157.94873,4157.94873,4166.666504,4174.871582,4186.666504,4234.358887,4234.871582,4304.615234,4294.358887,820,2027,2065,0,0,676,291,4,4,4,4,4,4,4,4,4,4,4,4,4,4,4,4
95,0,4282.05127,4097.436035,4214.871582,4136.410156,4140.512695,4149.230469,4153.333008,4158.974121,4169.743652,4198.974121,4221.025391,4222.563965,4291.794922,4280,720,2028,2066,0,0,676,299,4,4,4,4,4,4,4,4,4,4,4,4,4,4,4,4
96,0,4267.179199,4097.436035,4208.205078,4142.563965,4091.794678,4151.281738,4157.436035,4152.820313,4165.641113,4186.666504,4213.846191,4211.281738,4278.461426,4261.538574,828,2025,2063,0,0,676,307,4,4,4,4,4,4,4,4,4,4,4,4,4,4,4,4
97,0,4254.871582,4089.743408,4200.512695,4141.025391,4104.615234,4162.05127,4167.179199,4163.07666,4168.205078,4175.897461,4217.436035,4215.384277,4278.461426,4253.333008,787,2026,2062,0,0,676,321,4,4,4,4,4,4,4,4,4,4,4,4,4,4,4,4
98,0,4242.05127,4076.410156,4196.410156,4125.641113,4151.281738,4158.974121,4167.692383,4170.769043,4170.769043,4188.717773,4214.871582,4213.333008,4278.974121,4247.692383,820,2027,2060,0,0,676,323,4,4,4,4,4,4,4,4,4,4,4,4,4,4,4,4
99,0,4237.436035,4077.94873,4194.358887,4124.102539,4173.846191,4149.230469,4157.436035,4163.589844,4168.717773,4193.333008,4206.153809,4202.563965,4268.717773,4235.897461,720,2027,2059,0,0,676,332,4,4,4,4,4,4,4,4,4,4,4,4,4,4,4,4
100,0,4242.563965,4090.256348,4195.897461,4137.94873,4137.436035,4157.436035,4153.846191,4159.487305,4167.179199,4180,4205.641113,4199.487305,4258.974121,4229.743652,828,2027,2056,0,0,676,339,4,4,4,4,4,4,4,4,4,4,4,4,4,4,4,4
101,0,4233.333008,4084.102539,4192.820313,4136.410156,4083.5896,4169.743652,4163.589844,4163.589844,4169.743652,4176.410156,4204.102539,4197.94873,4253.846191,4225.12793,787,2029,2055,0,0,676,353,4,4,4,4,4,4,4,4,4,4,4,4,4,4,4,4
102,0,4218.461426,4066.666504,4187.179199,4118.974121,4102.563965,4165.641113,4169.230469,4168.717773,4170.769043,4194.871582,4199.487305,4195.897461,4253.333008,4223.589844,820,2030,2052,0,0,676,355,4,4,4,4,4,4,4,4,4,4,4,4,4,4,4,4
103,0,4216.410156,4075.384521,4184.615234,4116.410156,4174.358887,4154.871582,4167.179199,4171.794922,4168.717773,4202.05127,4202.563965,4198.461426,4257.436035,4227.179199,720,2031,2050,0,0,676,363,4,4,4,4,4,4,4,4,4,4,4,4,4,4,4,4
104,0,4219.487305,4094.358887,4188.717773,4131.794922,4181.538574,4149.743652,4169.230469,4173.846191,4168.717773,4188.717773,4214.358887,4203.07666,4266.153809,4231.794922,828,2032,2052,0,0,676,371,4,4,4,4,4,4,4,4,4,4,4,4,4,4,4,4
105,0,4218.461426,4092.307617,4190.769043,4138.974121,4114.871582,4154.871582,4170.769043,4171.281738,4169.230469,4188.205078,4218.974121,4205.12793,4272.820313,4235.384277,787,2031,2053,0,0,676,385,4,4,4,4,4,4,4,4,4,4,4,4,4,4,4,4
106,0,4215.897461,4080,4188.717773,4136.922852,4090.256348,4166.153809,4166.666504,4168.717773,4169.230469,4201.538574,4205.641113,4202.563965,4267.179199,4228.717773,820,2031,2054,0,0,676,387,4,4,4,4,4,4,4,4,4,4,4,4,4,4,4,4
107,0,4216.922852,4083.076904,4191.794922,4135.897461,4142.05127,4163.589844,4165.12793,4169.230469,4169.743652,4189.230469,4196.922852,4202.05127,4263.07666,4224.102539,720,2032,2055,0,0,676,395,4,4,4,4,4,4,4,4,4,4,4,4,4,4,4,4
108,0,4215.897461,4093.333252,4192.307617,4137.94873,4170.256348,4150.769043,4166.666504,4168.717773,4164.615234,4171.794922,4202.05127,4203.07666,4263.589844,4223.589844,828,2034,2055,0,0,676,402,4,4,4,4,4,4,4,4,4,4,4,4,4,4,4,4
109,0,4212.307617,4094.358887,4186.666504,4137.436035,4133.846191,4155.384277,4167.692383,4171.794922,4160.512695,4183.589844,4205.12793,4203.589844,4257.94873,4220,787,2036,2056,0,0,676,416,4,4,4,4,4,4,4,4,4,4,4,4,4,4,4,4
110,0,4213.846191,4090.256348,4186.153809,4135.384277,4113.846191,4174.358887,4172.307617,4183.589844,4168.205078,4190.769043,4201.025391,4202.563965,4257.436035,4214.358887,820,2036,2054,0,0,676,418,4,4,4,4,4,4,4,4,4,4,4,4,4,4,4,4
111,0,4217.436035,4092.820313,4185.641113,4137.436035,4153.846191,4184.615234,4173.846191,4186.153809,4175.897461,4188.205078,4193.846191,4195.897461,4262.05127,4210.769043,720,2039,2053,0,0,676,426,4,4,4,4,4,4,4,4,4,4,4,4,4,4,4,4
112,0,4215.384277,4102.563965,4184.102539,4146.666504,4158.461426,4184.102539,4167.692383,4171.281738,4169.230469,4176.410156,4187.692383,4186.153809,4253.846191,4203.589844,828,2039,2054,0,0,676,434,4,4,4,4,4,4,4,4,4,4,4,4,4,4,4,4
113,0,4214.358887,4101.025391,4190.769043,4151.281738,4110.769043,4184.615234,4167.179199,4167.692383,4168.717773,4162.563965,4189.230469,4190.769043,4245.12793,4205.12793,787,2039,2051,0,0,676,448,4,4,4,4,4,4,4,4,4,4,4,4,4,4,4,4
114,0,4214.871582,4095.897217,4192.307617,4143.07666,4117.94873,4184.615234,4172.307617,4179.487305,4177.94873,4177.436035,4188.717773,4198.461426,4240,4213.846191,820,2040,2051,0,0,676,450,4,4,4,4,4,4,4,4,4,4,4,4,4,4,4,4
115,0,4205.12793,4096.410156,4177.436035,4135.384277,4173.333008,4187.179199,4171.794922,4178.974121,4174.358887,4190.769043,4180.512695,4191.281738,4230.769043,4206.153809,720,2041,2052,0,0,676,458,4,4,4,4,4,4,4,4,4,4,4,4,4,4,4,4
116,0,4196.922852,4097.94873,4171.281738,4137.436035,4150.256348,4194.358887,4170.769043,4176.922852,4171.794922,4175.897461,4186.666504,4190.256348,4234.871582,4196.410156,828,2040,2052,0,0,676,465,4,4,4,4,4,4,4,4,4,4,4,4,4,4,4,4
117,0,4208.717773,4099.487305,4178.974121,4140.512695,4111.281738,4203.589844,4172.307617,4186.153809,4183.07666,4172.307617,4201.538574,4201.025391,4248.717773,4203.07666,787,2040,2054,0,0,676,479,4,4,4,4,4,4,4,4,4,4,4,4,4,4,4,4
118,0,4217.94873,4106.153809,4184.102539,4142.05127,4152.820313,4205.641113,4172.820313,4189.743652,4188.205078,4192.820313,4202.05127,4200.512695,4246.153809,4209.230469,820,2040,2056,0,0,676,481,4,4,4,4,4,4,4,4,4,4,4,4,4,4,4,4
119,0,4208.717773,4109.743652,4183.589844,4142.05127,4157.436035,4197.94873,4171.794922,4179.487305,4184.102539,4188.205078,4195.384277,4193.333008,4237.94873,4206.153809,720,2040,2056,0,0,676,489,4,4,4,4,4,4,4,4,4,4,4,4,4,4,4,4
120,0,4197.436035,4104.615234,4177.436035,4137.436035,4135.897461,4196.922852,4169.230469,4174.871582,4182.05127,4170.769043,4188.205078,4188.205078,4230.256348,4198.974121,828,2040,2059,0,0,676,497,4,4,4,4,4,4,4,4,4,4,4,4,4,4,4,4
121,0,4194.871582,4103.07666,4175.384277,4137.94873,4157.94873,4204.615234,4170.256348,4182.563965,4183.07666,4179.487305,4181.025391,4185.12793,4218.974121,4196.410156,787,2039,2061,0,0,676,511,4,4,4,4,4,4,4,4,4,4,4,4,4,4,4,4
122,0,4194.358887,4103.07666,4179.487305,4144.102539,4139.487305,4216.410156,4172.307617,4185.641113,4183.07666,4178.974121,4183.589844,4190.769043,4220,4197.436035,820,2041,2063,0,0,676,513,4,4,4,4,4,4,4,4,4,4,4,4,4,4,4,4
123,0,4197.436035,4104.102539,4182.05127,4143.589844,4116.410156,4221.538574,4173.846191,4184.102539,4184.102539,4168.205078,4192.307617,4199.487305,4225.641113,4195.384277,720,2041,2063,0,0,676,521,4,4,4,4,4,4,4,4,4,4,4,4,4,4,4,4
124,0,4200.512695,4108.717773,4178.974121,4142.563965,4177.94873,4210.256348,4172.307617,4184.102539,4183.07666,4187.179199,4188.205078,4198.461426,4220.512695,4191.794922,828,2044,2063,0,0,676,529,4,4,4,4,4,4,4,4,4,4,4,4,4,4,4,4
125,0,4194.871582,4109.743652,4176.410156,4149.743652,4196.410156,4204.615234,4169.230469,4183.589844,4182.563965,4192.820313,4179.487305,4187.692383,4213.846191,4187.692383,787,2043,2063,0,0,676,544,4,4,4,4,4,4,4,4,4,4,4,4,4,4,4,4
126,0,4192.820313,4112.307617,4177.94873,4158.974121,4124.102539,4209.230469,4169.743652,4182.563965,4183.589844,4166.153809,4184.102539,4182.563965,4217.436035,4185.641113,820,2045,2059,0,0,676,544,4,4,4,4,4,4,4,4,4,4,4,4,4,4,4,4
127,0,4197.436035,4110.256348,4180.512695,4151.794922,4115.897461,4208.205078,4173.846191,4185.641113,4183.589844,4173.846191,4189.230469,4188.205078,4223.589844,4194.871582,720,2046,2060,0,0,676,552,4,4,4,4,4,4,4,4,4,4,4,4,4,4,4,4
128,0,4198.974121,4108.205078,4181.538574,4143.07666,4167.179199,4205.641113,4173.846191,4184.615234,4185.12793,4192.307617,4187.692383,4196.410156,4229.743652,4202.05127,828,2046,2059,0,0,676,560,4,4,4,4,4,4,4,4,4,4,4,4,4,4,4,4
0,0,4195.384277,4116.410156,4178.461426,4146.666504,4184.102539,4210.769043,4169.230469,4173.333008,4182.05127,4168.205078,4186.666504,4196.922852,4230.256348,4192.820313,585,2047,2058,0,0,676,574,4,4,4,4,4,4,4,4,4,4,4,4,4,4,4,4
1,0,4185.641113,4105.641113,4171.794922,4143.589844,4145.12793,4215.897461,4171.794922,4171.794922,4178.974121,4160,4186.666504,4190.769043,4222.05127,4183.589844,799,2048,2058,0,0,676,576,4,4,4,4,4,4,4,4,4,4,4,4,4,4,4,4
2,0,4178.461426,4080.512695,4169.743652,4129.230469,4116.922852,4215.384277,4175.897461,4179.487305,4179.487305,4173.846191,4185.12793,4187.179199,4214.358887,4185.641113,805,2046,2056,0,0,676,584,4,4,4,4,4,4,4,4,4,4,4,4,4,4,4,4
3,0,4181.538574,4096.410156,4169.230469,4130.769043,4150.256348,4206.666504,4169.743652,4171.794922,4171.794922,4170.256348,4173.846191,4182.05127,4201.538574,4179.487305,857,2046,2055,0,0,676,592,4,4,4,4,4,4,4,4,4,4,4,4,4,4,4,4
4,0,4187.179199,4131.794922,4169.743652,4147.179199,4154.871582,4195.897461,4165.641113,4166.153809,4168.717773,4165.12793,4167.692383,4177.94873,4191.794922,4172.820313,821,2048,2054,0,0,676,607,4,4,4,4,4,4,4,4,4,4,4,4,4,4,4,4
5,0,4187.179199,4128.717773,4173.333008,4149.230469,4126.153809,4207.692383,4170.769043,4177.94873,4177.94873,4169.230469,4178.974121,4182.563965,4199.487305,4179.487305,723,2047,2054,0,0,676,607,4,4,4,4,4,4,4,4,4,4,4,4,4,4,4,4
6,0,4192.307617,4118.461426,4183.07666,4145.641113,4154.358887,4223.07666,4174.358887,4187.692383,4186.153809,4179.487305,4186.153809,4195.897461,4204.615234,4185.12793,731,2047,2055,0,0,676,615,4,4,4,4,4,4,4,4,4,4,4,4,4,4,4,4
7,0,4193.846191,4130.769043,4186.153809,4153.846191,4181.538574,4213.846191,4171.794922,4188.717773,4186.666504,4188.205078,4181.025391,4200,4200,4185.12793,760,2047,2054,0,0,676,623,4,4,4,4,4,4,4,4,4,4,4,4,4,4,4,4
8,0,4186.153809,4128.717773,4177.436035,4155.384277,4129.230469,4198.974121,4170.256348,4189.230469,4186.153809,4181.025391,4181.025391,4190.256348,4197.94873,4182.563965,632,2046,2058,0,0,676,637,4,4,4,4,4,4,4,4,4,4,4,4,4,4,4,4
9,0,4178.974121,4117.94873,4168.717773,4144.102539,4113.846191,4200.512695,4169.743652,4188.205078,4184.102539,4161.538574,4183.589844,4183.07666,4196.410156,4176.922852,816,2045,2056,0,0,676,639,4,4,4,4,4,4,4,4,4,4,4,4,4,4,4,4
10,0,4171.281738,4120,4164.615234,4137.436035,4164.102539,4208.205078,4166.153809,4185.641113,4181.025391,4159.487305,4177.94873,4180,4194.358887,4167.692383,822,2044,2058,0,0,676,647,4,4,4,4,4,4,4,4,4,4,4,4,4,4,4,4
11,0,4172.820313,4120.512695,4168.717773,4140.512695,4155.897461,4211.281738,4169.743652,4188.205078,4183.07666,4178.461426,4174.358887,4180.512695,4197.436035,4170.769043,720,2045,2057,0,0,676,655,4,4,4,4,4,4,4,4,4,4,4,4,4,4,4,4
12,0,4184.102539,4125.12793,4172.820313,4146.153809,4145.12793,4212.820313,4174.871582,4188.205078,4183.07666,4190.256348,4180.512695,4188.205078,4202.05127,4181.538574,828,2042,2053,0,0,676,670,4,4,4,4,4,4,4,4,4,4,4,4,4,4,4,4
13,0,4185.12793,4134.358887,4171.281738,4151.794922,4179.487305,4216.410156,4173.846191,4186.666504,4177.436035,4173.846191,4192.307617,4196.922852,4204.615234,4183.07666,787,2042,2050,0,0,676,670,4,4,4,4,4,4,4,4,4,4,4,4,4,4,4,4
14,0,4180.512695,4137.436035,4171.794922,4155.384277,4164.615234,4219.487305,4178.461426,4197.436035,4185.12793,4169.230469,4209.230469,4202.563965,4215.897461,4188.717773,822,2042,2046,0,0,676,678,4,4,4,4,4,4,4,4,4,4,4,4,4,4,4,4
15,0,4187.692383,4143.07666,4176.410156,4155.897461,4148.717773,4215.897461,4182.563965,4204.102539,4197.94873,4195.897461,4213.333008,4208.717773,4224.615234,4201.025391,720,2038,2038,0,0,676,686,4,4,4,4,4,4,4,4,4,4,4,4,4,4,4,4
16,0,4190.769043,4149.743652,4171.794922,4156.922852,4190.256348,4207.692383,4172.307617,4190.256348,4186.666504,4199.487305,4203.07666,4206.666504,4216.410156,4195.897461,0,2041,2037,0,0,676,700,4,4,4,4,4,4,4,4,4,4,4,4,4,4,4,4
17,0,4183.07666,4147.179199,4167.692383,4161.538574,4168.205078,4203.07666,4164.102539,4181.025391,4173.333008,4175.384277,4196.410156,4195.384277,4208.717773,4186.153809,0,2042,2036,0,0,676,702,4,4,4,4,4,4,4,4,4,4,4,4,4,4,4,4
18,0,4185.641113,4146.153809,4177.436035,4167.692383,4117.94873,4202.563965,4169.743652,4195.897461,4185.641113,4167.692383,4205.12793,4202.05127,4213.846191,4196.922852,0,2041,2034,0,0,676,710,4,4,4,4,4,4,4,4,4,4,4,4,4,4,4,4
19,0,4193.846191,4150.769043,4180.512695,4167.179199,4160,4202.563965,4170.256348,4204.615234,4197.436035,4186.153809,4214.871582,4216.410156,4220.512695,4207.179199,0,2038,2028,0,0,676,718,4,4,4,4,4,4,4,4,4,4,4,4,4,4,4,4
20,0,4190.256348,4145.641113,4168.205078,4161.025391,4194.871582,4206.666504,4168.205078,4203.589844,4199.487305,4207.179199,4207.179199,4209.230469,4217.436035,4198.461426,0,2036,2024,0,0,676,732,4,4,4,4,4,4,4,4,4,4,4,4,4,4,4,4
21,0,4182.563965,4148.205078,4166.666504,4163.07666,4167.692383,4208.717773,4171.794922,4204.102539,4200,4204.615234,4201.025391,4198.974121,4207.692383,4192.307617,0,2034,2018,0,0,676,733,4,4,4,4,4,4,4,4,4,4,4,4,4,4,4,4
22,0,4188.205078,4160,4171.794922,4170.769043,4153.333008,4198.974121,4164.102539,4193.333008,4190.256348,4183.589844,4208.205078,4201.538574,4200.512695,4189.230469,0,2030,2018,0,0,676,741,4,4,4,4,4,4,4,4,4,4,4,4,4,4,4,4
23,0,4196.922852,4160,4168.717773,4172.307617,4158.974121,4196.922852,4153.846191,4181.538574,4183.07666,4178.461426,4212.820313,4204.615234,4204.102539,4187.179199,0,2029,2024,0,0,676,749,4,4,4,4,4,4,4,4,4,4,4,4,4,4,4,4
24,0,4190.256348,4152.307617,4164.102539,4169.743652,4167.692383,4209.743652,4160,4181.025391,4182.563965,4192.307617,4197.94873,4202.05127,4202.05127,4187.692383,0,2028,2029,0,0,676,763,4,4,4,4,4,4,4,4,4,4,4,4,4,4,4,4
25,0,4183.589844,4147.179199,4163.589844,4165.12793,4180,4213.333008,4165.12793,4173.846191,4170.256348,4180.512695,4182.563965,4198.461426,4183.589844,4185.12793,0,2026,2038,0,0,676,765,4,4,4,4,4,4,4,4,4,4,4,4,4,4,4,4
26,0,4191.794922,4152.820313,4172.307617,4168.205078,4180,4204.102539,4160.512695,4167.692383,4163.589844,4169.743652,4186.153809,4201.025391,4180.512695,4186.666504,0,2026,2041,0,0,676,773,4,4,4,4,4,4,4,4,4,4,4,4,4,4,4,4
27,0,4195.897461,4160.512695,4183.07666,4174.358887,4149.230469,4195.897461,4162.05127,4175.384277,4172.307617,4180.512695,4195.384277,4203.589844,4191.794922,4188.205078,0,2026,2041,0,0,676,781,4,4,4,4,4,4,4,4,4,4,4,4,4,4,4,4
28,0,4186.666504,4152.820313,4177.94873,4166.666504,4130.256348,4195.897461,4168.205078,4172.820313,4168.205078,4176.410156,4185.12793,4194.358887,4179.487305,4176.922852,0,2026,2036,0,0,676,795,4,4,4,4,4,4,4,4,4,4,4,4,4,4,4,4
29,0,4182.05127,4140.512695,4169.743652,4153.333008,4161.025391,4202.05127,4166.153809,4158.461426,4152.307617,4155.897461,4165.641113,4182.05127,4162.563965,4163.07666,0,2028,2034,0,0,676,796,4,4,4,4,4,4,4,4,4,4,4,4,4,4,4,4
30,0,4188.205078,4147.692383,4180,4163.589844,4178.974121,4201.025391,4167.179199,4160,4154.358887,4149.230469,4172.307617,4188.717773,4173.333008,4166.153809,0,2029,2033,0,0,676,804,4,4,4,4,4,4,4,4,4,4,4,4,4,4,4,4
31,0,4194.358887,4162.563965,4188.717773,4180.512695,4160.512695,4193.333008,4172.820313,4171.281738,4170.256348,4155.897461,4191.281738,4201.538574,4186.153809,4180,0,2029,2035,0,0,676,812,4,4,4,4,4,4,4,4,4,4,4,4,4,4,4,4
32,0,4182.563965,4152.820313,4175.897461,4163.07666,4163.07666,4195.384277,4175.384277,4172.307617,4170.256348,4164.102539,4175.384277,4188.717773,4167.179199,4170.256348,0,2031,2036,0,0,676,826,4,4,4,4,4,4,4,4,4,4,4,4,4,4,4,4
33,0,4167.692383,4136.410156,4167.692383,4143.07666,4152.307617,4198.461426,4176.410156,4169.230469,4158.974121,4174.871582,4155.384277,4169.743652,4151.794922,4154.358887,0,2030,2035,0,0,676,828,4,4,4,4,4,4,4,4,4,4,4,4,4,4,4,4
34,0,4171.281738,4140,4175.897461,4149.230469,4117.94873,4198.461426,4176.410156,4171.794922,4157.436035,4157.94873,4164.102539,4170.256348,4158.974121,4157.436035,0,2030,2034,0,0,676,836,4,4,4,4,4,4,4,4,4,4,4,4,4,4,4,4
35,0,4173.846191,4144.102539,4179.487305,4149.230469,4142.05127,4201.538574,4172.820313,4167.179199,4159.487305,4134.871582,4158.974121,4170.769043,4150.256348,4154.358887,0,2029,2033,0,0,676,844,4,4,4,4,4,4,4,4,4,4,4,4,4,4,4,4
36,0,4164.615234,4134.358887,4180.512695,4135.897461,4169.743652,4194.358887,4169.743652,4156.410156,4153.333008,4151.281738,4145.641113,4164.615234,4140.512695,4143.07666,0,2030,2033,0,0,676,859,4,4,4,4,4,4,4,4,4,4,4,4,4,4,4,4
37,0,4168.717773,4133.846191,4193.333008,4137.436035,4122.05127,4180.512695,4176.922852,4156.410156,4147.179199,4150.769043,4165.12793,4171.794922,4157.436035,4153.846191,0,2029,2033,0,0,676,860,4,4,4,4,4,4,4,4,4,4,4,4,4,4,4,4
38,0,4172.307617,4137.436035,4205.12793,4144.102539,4095.897217,4189.230469,4189.230469,4158.974121,4141.025391,4124.615234,4166.153809,4173.846191,4157.436035,4157.94873,0,2027,2031,0,0,676,867,4,4,4,4,4,4,4,4,4,4,4,4,4,4,4,4
39,0,4158.461426,4124.615234,4205.12793,4133.333008,4143.07666,4200,4196.410156,4148.205078,4130.769043,4130.256348,4132.307617,4154.871582,4133.333008,4137.436035,0,2029,2028,0,0,676,875,4,4,4,4,4,4,4,4,4,4,4,4,4,4,4,4
40,0,4154.871582,4117.94873,4210.769043,4130.769043,4154.358887,4201.025391,4205.641113,4141.025391,4134.871582,4148.205078,4130.769043,4149.743652,4133.846191,4132.307617,0,2030,2024,0,0,676,889,4,4,4,4,4,4,4,4,4,4,4,4,4,4,4,4
41,0,4159.487305,4123.07666,4219.487305,4133.846191,4091.281982,4205.641113,4216.922852,4138.974121,4136.410156,4133.846191,4140,4151.794922,4140,4135.384277,0,2031,2025,0,0,676,891,4,4,4,4,4,4,4,4,4,4,4,4,4,4,4,4
42,0,4152.820313,4111.281738,4217.436035,4117.94873,4081.025635,4206.153809,4217.436035,4122.563965,4110.256348,4118.461426,4111.281738,4136.922852,4109.743652,4121.538574,0,2033,2024,0,0,676,899,4,4,4,4,4,4,4,4,4,4,4,4,4,4,4,4
43,0,4148.717773,4096.922852,4212.307617,4107.692383,4137.436035,4203.589844,4218.461426,4121.538574,4100,4119.487305,4102.05127,4136.922852,4094.358887,4116.410156,0,2036,2028,0,0,676,907,4,4,4,4,4,4,4,4,4,4,4,4,4,4,4,4
44,0,4151.281738,4108.717773,4209.743652,4120,4123.07666,4205.641113,4226.153809,4147.692383,4123.07666,4107.179199,4135.897461,4154.358887,4120.512695,4123.589844,0,2036,2028,0,0,676,921,4,4,4,4,4,4,4,4,4,4,4,4,4,4,4,4
45,0,4150.256348,4123.589844,4203.07666,4125.641113,4094.358887,4203.589844,4222.05127,4157.436035,4136.922852,4118.461426,4147.692383,4154.358887,4136.922852,4126.153809,0,2037,2034,0,0,676,923,4,4,4,4,4,4,4,4,4,4,4,4,4,4,4,4
46,0,4161.538574,4127.692383,4198.974121,4122.05127,4121.538574,4202.563965,4212.820313,4158.974121,4143.07666,4160,4137.94873,4158.461426,4136.410156,4140,0,2038,2034,0,0,676,930,4,4,4,4,4,4,4,4,4,4,4,4,4,4,4,4
47,0,4181.025391,4137.94873,4203.07666,4133.846191,4133.333008,4213.333008,4210.256348,4181.538574,4164.615234,4182.05127,4156.410156,4182.05127,4154.358887,4165.12793,0,2040,2038,0,0,676,938,4,4,4,4,4,4,4,4,4,4,4,4,4,4,4,4
48,0,4184.102539,4157.436035,4196.410156,4147.179199,4155.897461,4211.794922,4201.025391,4190.256348,4174.871582,4177.436035,4176.922852,4188.205078,4175.384277,4170.256348,0,2041,2041,0,0,676,952,4,4,4,4,4,4,4,4,4,4,4,4,4,4,4,4
49,0,4185.641113,4181.538574,4186.153809,4161.538574,4185.641113,4196.922852,4190.256348,4188.717773,4178.461426,4181.025391,4189.743652,4192.820313,4190.256348,4175.384277,0,2043,2041,0,0,676,954,4,4,4,4,4,4,4,4,4,4,4,4,4,4,4,4
50,0,4188.717773,4193.846191,4177.94873,4176.410156,4156.410156,4206.153809,4181.025391,4198.974121,4192.307617,4194.358887,4208.717773,4210.256348,4205.12793,4190.256348,0,2045,2041,0,0,676,962,4,4,4,4,4,4,4,4,4,4,4,4,4,4,4,4
51,0,4174.358887,4187.692383,4163.07666,4169.230469,4152.307617,4222.05127,4171.281738,4194.871582,4191.281738,4201.025391,4200,4199.487305,4197.94873,4183.589844,0,2047,2043,0,0,676,970,4,4,4,4,4,4,4,4,4,4,4,4,4,4,4,4
52,0,4168.717773,4191.794922,4157.436035,4163.07666,4201.025391,4208.205078,4173.846191,4182.563965,4183.589844,4205.641113,4176.922852,4181.538574,4182.05127,4168.205078,0,2050,2043,0,0,676,984,4,4,4,4,4,4,4,4,4,4,4,4,4,4,4,4
53,0,4181.538574,4207.692383,4168.717773,4171.794922,4190.769043,4193.333008,4179.487305,4181.025391,4185.12793,4196.922852,4182.563965,4189.230469,4183.589844,4172.307617,0,2050,2043,0,0,676,986,4,4,4,4,4,4,4,4,4,4,4,4,4,4,4,4
54,0,4175.897461,4197.436035,4174.358887,4168.717773,4155.384277,4202.563965,4177.436035,4174.358887,4173.846191,4181.538574,4185.641113,4193.333008,4184.102539,4174.358887,0,2051,2048,0,0,676,994,4,4,4,4,4,4,4,4,4,4,4,4,4,4,4,4
55,0,4152.820313,4171.794922,4168.717773,4151.794922,4170.769043,4205.12793,4180,4161.538574,4155.897461,4166.153809,4165.12793,4181.025391,4165.12793,4158.974121,0,2051,2050,0,0,677,1,4,4,4,4,4,4,4,4,4,4,4,4,4,4,4,4
56,0,4146.666504,4166.666504,4166.153809,4144.615234,4179.487305,4198.461426,4186.666504,4164.615234,4160.512695,4157.94873,4160.512695,4177.94873,4148.205078,4147.692383,0,2053,2056,0,0,677,15,4,4,4,4,4,4,4,4,4,4,4,4,4,4,4,4
57,0,4152.307617,4175.384277,4169.743652,4148.205078,4154.871582,4203.07666,4188.205078,4185.12793,4185.641113,4186.666504,4175.384277,4187.692383,4157.94873,4155.897461,0,2053,2059,0,0,677,17,4,4,4,4,4,4,4,4,4,4,4,4,4,4,4,4
58,0,4154.871582,4187.692383,4170.769043,4147.692383,4160,4197.436035,4187.179199,4202.05127,4203.589844,4221.025391,4186.153809,4199.487305,4185.12793,4168.205078,0,2053,2062,0,0,677,25,4,4,4,4,4,4,4,4,4,4,4,4,4,4,4,4
59,0,4152.820313,4200.512695,4168.205078,4141.538574,4177.94873,4188.717773,4181.538574,4197.436035,4197.94873,4212.307617,4188.717773,4200,4188.205078,4164.102539,0,2053,2065,0,0,677,33,4,4,4,4,4,4,4,4,4,4,4,4,4,4,4,4
60,0,4150.769043,4213.846191,4166.153809,4143.589844,4168.205078,4200.512695,4169.743652,4183.589844,4186.153809,4184.615234,4180,4190.256348,4167.179199,4151.794922,0,2055,2071,0,0,677,47,4,4,4,4,4,4,4,4,4,4,4,4,4,4,4,4
61,0,4154.358887,4222.05127,4166.153809,4152.820313,4166.666504,4205.12793,4170.256348,4189.743652,4191.281738,4188.205078,4173.846191,4188.717773,4166.666504,4153.846191,0,2056,2077,0,0,677,49,4,4,4,4,4,4,4,4,4,4,4,4,4,4,4,4
62,0,4156.922852,4225.641113,4164.615234,4152.820313,4181.025391,4196.410156,4175.384277,4198.974121,4197.94873,4206.153809,4175.384277,4192.820313,4173.846191,4161.025391,0,2055,2082,0,0,677,56,4,4,4,4,4,4,4,4,4,4,4,4,4,4,4,4
63,0,4153.333008,4242.05127,4160.512695,4153.333008,4171.281738,4207.179199,4173.333008,4192.820313,4190.256348,4195.897461,4170.256348,4185.641113,4162.05127,4155.384277,0,2056,2083,0,0,677,64,4,4,4,4,4,4,4,4,4,4,4,4,4,4,4,4
64,0,4153.846191,4259.487305,4154.871582,4161.025391,4170.256348,4218.974121,4170.256348,4185.12793,4185.12793,4173.846191,4163.07666,4179.487305,4158.461426,4148.717773,585,2056,2081,0,0,677,78,4,4,4,4,4,4,4,4,4,4,4,4,4,4,4,4
65,0,4154.871582,4256.410156,4150.769043,4160.512695,4192.307617,4204.102539,4168.717773,4186.666504,4195.384277,4185.12793,4174.358887,4191.281738,4171.794922,4159.487305,799,2056,2079,0,0,677,80,4,4,4,4,4,4,4,4,4,4,4,4,4,4,4,4
66,0,4153.846191,4254.358887,4155.384277,4158.974121,4177.94873,4196.922852,4169.230469,4190.256348,4200,4205.641113,4184.102539,4197.436035,4174.871582,4167.179199,805,2056,2077,0,0,677,88,4,4,4,4,4,4,4,4,4,4,4,4,4,4,4,4
67,0,4152.820313,4269.743652,4151.281738,4164.102539,4184.102539,4203.589844,4167.179199,4183.07666,4187.692383,4187.692383,4170.256348,4183.589844,4161.538574,4156.410156,858,2054,2070,0,0,677,96,4,4,4,4,4,4,4,4,4,4,4,4,4,4,4,4
68,0,4146.666504,4274.871582,4142.563965,4164.102539,4212.820313,4201.025391,4170.769043,4177.436035,4179.487305,4167.179199,4161.025391,4177.436035,4150.256348,4149.743652,825,2054,2068,0,0,677,110,4,4,4,4,4,4,4,4,4,4,4,4,4,4,4,4
69,0,4144.102539,4269.743652,4147.179199,4161.538574,4178.974121,4196.922852,4176.410156,4183.07666,4183.589844,4177.436035,4168.717773,4183.589844,4154.358887,4154.358887,723,2052,2061,0,0,677,112,4,4,4,4,4,4,4,4,4,4,4,4,4,4,4,4
70,0,4150.256348,4276.922852,4153.846191,4163.07666,4166.153809,4200,4173.846191,4187.692383,4190.769043,4196.922852,4168.717773,4187.692383,4162.563965,4158.974121,731,2049,2058,0,0,677,120,4,4,4,4,4,4,4,4,4,4,4,4,4,4,4,4
71,0,4155.897461,4290.256348,4151.794922,4169.230469,4206.666504,4202.563965,4175.384277,4191.281738,4200,4214.871582,4172.820313,4195.897461,4170.769043,4165.641113,761,2047,2052,0,0,677,128,4,4,4,4,4,4,4,4,4,4,4,4,4,4,4,4
72,0,4154.358887,4292.307617,4149.230469,4172.307617,4213.333008,4198.461426,4182.563965,4201.538574,4205.12793,4214.871582,4190.769043,4208.205078,4178.974121,4174.871582,632,2047,2049,0,0,677,143,4,4,4,4,4,4,4,4,4,4,4,4,4,4,4,4
73,0,4154.358887,4288.717773,4150.256348,4164.102539,4192.820313,4191.794922,4175.384277,4207.692383,4204.102539,4205.641113,4195.897461,4205.12793,4175.384277,4173.846191,812,2046,2048,0,0,677,143,4,4,4,4,4,4,4,4,4,4,4,4,4,4,4,4
74,0,4151.794922,4289.230469,4150.769043,4157.94873,4182.05127,4195.384277,4164.102539,4195.897461,4195.897461,4202.05127,4175.384277,4188.205078,4156.410156,4163.589844,821,2045,2049,0,0,677,151,4,4,4,4,4,4,4,4,4,4,4,4,4,4,4,4
75,0,4149.743652,4293.846191,4150.769043,4163.07666,4166.153809,4203.589844,4174.871582,4191.794922,4188.205078,4190.769043,4170.769043,4186.153809,4152.820313,4161.025391,718,2045,2052,0,0,677,159,4,4,4,4,4,4,4,4,4,4,4,4,4,4,4,4
76,0,4161.538574,4307.692383,4154.358887,4172.820313,4169.743652,4190.769043,4184.102539,4202.05127,4194.871582,4187.692383,4181.538574,4202.05127,4164.102539,4171.794922,824,2044,2052,0,0,677,173,4,4,4,4,4,4,4,4,4,4,4,4,4,4,4,4
77,0,4166.666504,4311.794922,4160.512695,4167.692383,4189.230469,4182.05127,4178.461426,4198.974121,4201.538574,4199.487305,4173.846191,4206.153809,4159.487305,4174.871582,787,2045,2055,0,0,677,175,4,4,4,4,4,4,4,4,4,4,4,4,4,4,4,4
78,0,4155.897461,4299.487305,4168.717773,4156.410156,4169.230469,4196.410156,4174.871582,4187.179199,4198.974121,4197.436035,4171.794922,4195.897461,4158.974121,4169.743652,821,2045,2060,0,0,677,182,4,4,4,4,4,4,4,4,4,4,4,4,4,4,4,4
79,0,4153.846191,4306.666504,4172.820313,4161.538574,4158.974121,4196.922852,4178.461426,4184.102539,4197.94873,4185.12793,4183.07666,4190.769043,4167.179199,4171.281738,718,2045,2062,0,0,677,190,4,4,4,4,4,4,4,4,4,4,4,4,4,4,4,4
80,0,4155.897461,4320,4166.153809,4165.12793,4187.179199,4194.871582,4179.487305,4176.410156,4195.384277,4175.384277,4166.666504,4185.641113,4148.717773,4165.641113,824,2046,2064,0,0,677,204,4,4,4,4,4,4,4,4,4,4,4,4,4,4,4,4
81,0,4151.281738,4313.333008,4160,4153.333008,4186.153809,4201.025391,4176.410156,4160.512695,4189.743652,4164.615234,4145.641113,4181.025391,4131.281738,4152.307617,787,2045,2061,0,0,677,206,4,4,4,4,4,4,4,4,4,4,4,4,4,4,4,4
82,0,4151.794922,4309.230469,4162.563965,4150.256348,4164.615234,4191.281738,4180,4157.436035,4191.794922,4166.666504,4166.153809,4187.692383,4150.256348,4153.333008,821,2044,2058,0,0,677,214,4,4,4,4,4,4,4,4,4,4,4,4,4,4,4,4
83,0,4153.846191,4322.563965,4166.666504,4157.94873,4170.769043,4186.153809,4187.179199,4159.487305,4189.743652,4168.717773,4176.922852,4186.666504,4158.974121,4157.436035,718,2043,2057,0,0,677,222,4,4,4,4,4,4,4,4,4,4,4,4,4,4,4,4
84,0,4143.07666,4327.179199,4161.538574,4154.871582,4179.487305,4198.974121,4183.589844,4154.871582,4181.025391,4161.538574,4155.384277,4171.794922,4137.94873,4151.281738,824,2044,2057,0,0,677,236,4,4,4,4,4,4,4,4,4,4,4,4,4,4,4,4
85,0,4136.922852,4328.205078,4151.281738,4152.820313,4160,4200,4172.820313,4159.487305,4184.615234,4162.563965,4152.820313,4167.692383,4133.846191,4148.205078,787,2042,2057,0,0,677,238,4,4,4,4,4,4,4,4,4,4,4,4,4,4,4,4
86,0,4146.153809,4341.025391,4149.743652,4165.12793,4170.256348,4193.333008,4169.743652,4176.922852,4198.974121,4166.666504,4172.307617,4183.07666,4150.256348,4158.974121,821,2040,2059,0,0,677,246,4,4,4,4,4,4,4,4,4,4,4,4,4,4,4,4
87,0,4154.358887,4350.769043,4156.410156,4167.692383,4206.666504,4201.538574,4172.820313,4194.358887,4215.897461,4182.05127,4184.615234,4197.436035,4163.589844,4170.769043,718,2041,2059,0,0,677,254,4,4,4,4,4,4,4,4,4,4,4,4,4,4,4,4
88,0,4153.846191,4353.333008,4156.922852,4158.974121,4194.358887,4198.461426,4176.410156,4203.07666,4225.12793,4205.12793,4178.461426,4192.820313,4161.538574,4168.205078,824,2038,2056,0,0,677,269,4,4,4,4,4,4,4,4,4,4,4,4,4,4,4,4
89,0,4153.333008,4354.358887,4151.794922,4156.410156,4164.102539,4188.205078,4182.05127,4201.538574,4217.94873,4192.820313,4170.769043,4186.666504,4152.820313,4161.538574,787,2037,2057,0,0,677,269,4,4,4,4,4,4,4,4,4,4,4,4,4,4,4,4
90,0,4151.281738,4356.410156,4150.256348,4160.512695,4174.871582,4194.871582,4184.615234,4193.846191,4213.333008,4168.717773,4172.307617,4188.205078,4148.717773,4160.512695,821,2036,2058,0,0,677,277,4,4,4,4,4,4,4,4,4,4,4,4,4,4,4,4
91,0,4144.102539,4356.410156,4151.281738,4157.436035,4190.769043,4200.512695,4184.615234,4186.153809,4216.410156,4170.769043,4170.256348,4182.563965,4142.05127,4156.922852,718,2037,2060,0,0,677,285,4,4,4,4,4,4,4,4,4,4,4,4,4,4,4,4
92,0,4138.974121,4350.256348,4150.256348,4149.743652,4172.307617,4197.436035,4187.179199,4181.538574,4211.281738,4172.820313,4166.666504,4170.769043,4140.512695,4155.897461,824,2035,2062,0,0,677,299,4,4,4,4,4,4,4,4,4,4,4,4,4,4,4,4
93,0,4137.436035,4344.615234,4145.641113,4143.07666,4164.102539,4203.07666,4187.179199,4173.333008,4202.05127,4169.230469,4157.436035,4168.717773,4139.487305,4150.769043,787,2032,2065,0,0,677,301,4,4,4,4,4,4,4,4,4,4,4,4,4,4,4,4
94,0,4133.846191,4341.538574,4141.538574,4139.487305,4189.230469,4213.333008,4180,4163.589844,4201.538574,4169.743652,4148.717773,4170.769043,4130.769043,4138.461426,821,2032,2068,0,0,677,309,4,4,4,4,4,4,4,4,4,4,4,4,4,4,4,4
95,0,4135.897461,4338.974121,4149.743652,4146.666504,4174.871582,4196.922852,4174.871582,4160.512695,4202.05127,4152.307617,4160,4174.358887,4131.794922,4141.538574,718,2032,2068,0,0,677,317,4,4,4,4,4,4,4,4,4,4,4,4,4,4,4,4
96,0,4144.102539,4348.717773,4158.974121,4155.384277,4138.461426,4177.436035,4172.307617,4162.563965,4198.974121,4148.717773,4167.692383,4178.974121,4139.487305,4157.436035,824,2032,2069,0,0,677,332,4,4,4,4,4,4,4,4,4,4,4,4,4,4,4,4
97,0,4146.153809,4363.07666,4153.846191,4155.384277,4179.487305,4190.769043,4169.743652,4165.12793,4200.512695,4173.333008,4155.897461,4181.025391,4137.94873,4158.461426,787,2032,2071,0,0,677,332,4,4,4,4,4,4,4,4,4,4,4,4,4,4,4,4
98,0,4140,4360.512695,4144.615234,4152.820313,4224.615234,4204.615234,4168.205078,4168.205078,4205.641113,4171.281738,4160,4183.589844,4141.538574,4153.846191,821,2032,2072,0,0,677,340,4,4,4,4,4,4,4,4,4,4,4,4,4,4,4,4
99,0,4140,4360.512695,4145.641113,4154.871582,4174.358887,4187.692383,4165.641113,4176.410156,4214.871582,4167.179199,4181.025391,4188.717773,4156.922852,4162.05127,718,2032,2073,0,0,677,348,4,4,4,4,4,4,4,4,4,4,4,4,4,4,4,4
100,0,4142.563965,4365.12793,4150.256348,4154.358887,4148.717773,4180,4165.12793,4186.153809,4227.692383,4182.563965,4176.922852,4189.743652,4160,4166.666504,824,2033,2072,0,0,677,362,4,4,4,4,4,4,4,4,4,4,4,4,4,4,4,4
101,0,4135.897461,4353.846191,4145.641113,4148.717773,4185.12793,4196.922852,4162.05127,4188.205078,4230.769043,4180,4165.641113,4186.153809,4149.743652,4156.922852,787,2032,2073,0,0,677,364,4,4,4,4,4,4,4,4,4,4,4,4,4,4,4,4
102,0,4133.846191,4352.307617,4142.05127,4147.179199,4180,4194.358887,4156.410156,4183.07666,4230.769043,4173.333008,4170.769043,4181.025391,4144.102539,4151.794922,821,2033,2072,0,0,677,371,4,4,4,4,4,4,4,4,4,4,4,4,4,4,4,4
103,0,4141.538574,4373.846191,4143.589844,4154.871582,4171.794922,4179.487305,4158.461426,4174.358887,4232.307617,4185.12793,4165.12793,4176.922852,4138.974121,4155.897461,718,2033,2071,0,0,677,379,4,4,4,4,4,4,4,4,4,4,4,4,4,4,4,4
104,0,4144.102539,4376.922852,4143.07666,4158.974121,4185.12793,4190.256348,4168.717773,4172.307617,4227.692383,4184.615234,4151.794922,4178.974121,4136.410156,4156.922852,824,2032,2068,0,0,677,393,4,4,4,4,4,4,4,4,4,4,4,4,4,4,4,4
105,0,4138.974121,4366.153809,4138.974121,4155.897461,4165.12793,4200,4168.717773,4167.692383,4216.922852,4152.307617,4154.871582,4181.025391,4138.461426,4153.333008,787,2034,2069,0,0,677,395,4,4,4,4,4,4,4,4,4,4,4,4,4,4,4,4
106,0,4139.487305,4373.846191,4143.07666,4156.922852,4158.461426,4186.666504,4165.641113,4156.922852,4216.410156,4143.07666,4160.512695,4177.94873,4137.436035,4150.256348,821,2035,2069,0,0,677,403,4,4,4,4,4,4,4,4,4,4,4,4,4,4,4,4
107,0,4138.974121,4370.256348,4144.615234,4154.871582,4194.358887,4187.692383,4168.205078,4150.769043,4215.384277,4160.512695,4144.102539,4165.12793,4127.692383,4142.05127,718,2036,2068,0,0,677,411,4,4,4,4,4,4,4,4,4,4,4,4,4,4,4,4
108,0,4130.256348,4356.410156,4138.461426,4149.230469,4182.05127,4201.538574,4162.05127,4147.179199,4202.563965,4151.281738,4130.769043,4151.794922,4116.922852,4133.846191,824,2034,2067,0,0,677,425,4,4,4,4,4,4,4,4,4,4,4,4,4,4,4,4
109,0,4129.230469,4355.897461,4138.974121,4152.307617,4130.256348,4190.256348,4158.461426,4146.666504,4198.974121,4132.307617,4141.025391,4159.487305,4122.05127,4137.436035,787,2035,2067,0,0,677,427,4,4,4,4,4,4,4,4,4,4,4,4,4,4,4,4
110,0,4130.769043,4352.820313,4142.05127,4149.743652,4147.179199,4171.281738,4163.589844,4149.743652,4204.615234,4140.512695,4138.974121,4169.743652,4125.641113,4140.512695,821,2038,2067,0,0,677,435,4,4,4,4,4,4,4,4,4,4,4,4,4,4,4,4
111,0,4122.563965,4347.179199,4136.410156,4142.563965,4193.333008,4180.512695,4161.538574,4147.179199,4200,4145.641113,4120,4158.974121,4113.846191,4130.256348,718,2038,2067,0,0,677,443,4,4,4,4,4,4,4,4,4,4,4,4,4,4,4,4
112,0,4125.641113,4350.256348,4137.436035,4147.692383,4187.179199,4196.922852,4161.025391,4144.102539,4197.436035,4136.922852,4123.07666,4156.922852,4110.769043,4128.205078,824,2039,2064,0,0,677,457,4,4,4,4,4,4,4,4,4,4,4,4,4,4,4,4
113,0,4140.512695,4358.974121,4149.230469,4158.461426,4153.333008,4187.179199,4167.692383,4152.307617,4210.256348,4155.897461,4142.563965,4171.281738,4123.07666,4139.487305,787,2041,2064,0,0,677,458,4,4,4,4,4,4,4,4,4,4,4,4,4,4,4,4
114,0,4135.897461,4361.025391,4148.717773,4158.461426,4151.281738,4177.94873,4170.256348,4158.461426,4218.461426,4167.692383,4140,4170.256348,4133.333008,4141.538574,821,2040,2061,0,0,677,466,4,4,4,4,4,4,4,4,4,4,4,4,4,4,4,4
115,0,4121.025391,4355.897461,4136.410156,4149.743652,4180.512695,4192.307617,4173.846191,4161.025391,4220.512695,4149.230469,4135.897461,4163.589844,4131.794922,4134.871582,718,2041,2060,0,0,677,474,4,4,4,4,4,4,4,4,4,4,4,4,4,4,4,4
116,0,4121.538574,4353.333008,4137.436035,4144.102539,4191.794922,4207.692383,4182.05127,4172.820313,4229.743652,4154.871582,4151.281738,4173.846191,4134.358887,4137.94873,824,2041,2059,0,0,677,488,4,4,4,4,4,4,4,4,4,4,4,4,4,4,4,4
117,0,4123.07666,4353.333008,4140,4147.692383,4170.769043,4202.563965,4175.897461,4167.692383,4231.794922,4167.692383,4144.615234,4169.230469,4128.717773,4136.410156,787,2042,2057,0,0,677,490,4,4,4,4,4,4,4,4,4,4,4,4,4,4,4,4
118,0,4126.153809,4356.922852,4136.410156,4153.846191,4154.358887,4188.717773,4162.05127,4153.333008,4227.692383,4164.615234,4117.94873,4150.256348,4113.333008,4123.589844,821,2041,2053,0,0,677,498,4,4,4,4,4,4,4,4,4,4,4,4,4,4,4,4
119,0,4137.94873,4362.05127,4141.025391,4153.333008,4169.743652,4185.12793,4161.538574,4160.512695,4230.769043,4161.538574,4122.563965,4153.333008,4113.846191,4127.692383,718,2041,2051,0,0,677,506,4,4,4,4,4,4,4,4,4,4,4,4,4,4,4,4
120,0,4141.538574,4364.102539,4148.717773,4152.820313,4177.436035,4189.743652,4166.153809,4167.692383,4229.743652,4152.820313,4145.12793,4168.205078,4127.179199,4141.025391,824,2040,2050,0,0,677,520,4,4,4,4,4,4,4,4,4,4,4,4,4,4,4,4
121,0,4137.436035,4362.563965,4147.692383,4153.333008,4166.153809,4185.641113,4164.102539,4155.897461,4220,4145.641113,4139.487305,4165.12793,4130.256348,4141.538574,787,2040,2045,0,0,677,521,4,4,4,4,4,4,4,4,4,4,4,4,4,4,4,4
122,0,4142.05127,4366.153809,4148.205078,4153.846191,4157.94873,4174.871582,4160.512695,4148.717773,4214.871582,4142.05127,4126.666504,4156.410156,4124.615234,4135.897461,821,2038,2044,0,0,677,529,4,4,4,4,4,4,4,4,4,4,4,4,4,4,4,4
123,0,4153.846191,4371.281738,4157.436035,4157.436035,4152.820313,4178.461426,4161.538574,4153.333008,4212.307617,4142.563965,4129.743652,4164.615234,4123.589844,4141.025391,718,2037,2044,0,0,677,537,4,4,4,4,4,4,4,4,4,4,4,4,4,4,4,4
124,0,4156.922852,4365.12793,4158.974121,4157.436035,4163.589844,4187.692383,4158.974121,4146.666504,4205.641113,4147.179199,4128.205078,4170.769043,4118.974121,4143.07666,824,2037,2042,0,0,677,551,4,4,4,4,4,4,4,4,4,4,4,4,4,4,4,4
125,0,4147.692383,4352.820313,4156.410156,4154.871582,4156.922852,4180,4152.820313,4133.333008,4196.410156,4142.563965,4123.07666,4164.102539,4109.230469,4136.410156,787,2034,2039,0,0,677,553,4,4,4,4,4,4,4,4,4,4,4,4,4,4,4,4
126,0,4144.102539,4352.307617,4158.974121,4153.333008,4140,4169.743652,4157.94873,4141.538574,4197.436035,4133.333008,4132.307617,4169.230469,4111.794922,4140.512695,821,2033,2038,0,0,677,561,4,4,4,4,4,4,4,4,4,4,4,4,4,4,4,4
127,0,4152.820313,4363.07666,4161.538574,4156.922852,4163.07666,4176.410156,4166.153809,4154.871582,4210.256348,4145.12793,4149.743652,4184.615234,4129.230469,4152.307617,718,2034,2037,0,0,677,569,4,4,4,4,4,4,4,4,4,4,4,4,4,4,4,4
128,0,4158.974121,4365.12793,4162.05127,4167.692383,4186.666504,4189.743652,4162.05127,4157.94873,4222.563965,4173.333008,4156.922852,4189.743652,4145.641113,4157.94873,824,2031,2036,0,0,677,583,4,4,4,4,4,4,4,4,4,4,4,4,4,4,4,4
0,0,4156.922852,4357.435547,4161.025391,4168.205078,4178.461426,4191.794922,4155.384277,4154.358887,4221.025391,4170.769043,4149.230469,4185.641113,4139.487305,4156.410156,585,2031,2037,0,0,677,585,4,4,4,4,4,4,4,4,4,4,4,4,4,4,4,4
1,0,4152.820313,4355.384277,4154.871582,4154.871582,4158.974121,4183.589844,4153.846191,4150.769043,4213.846191,4156.410156,4130.769043,4180,4116.922852,4149.743652,799,2032,2037,0,0,677,592,4,4,4,4,4,4,4,4,4,4,4,4,4,4,4,4
2,0,4145.12793,4349.230469,4144.615234,4149.743652,4148.717773,4182.05127,4155.384277,4150.769043,4210.769043,4154.871582,4121.025391,4171.281738,4110.256348,4140,805,2029,2040,0,0,677,600,4,4,4,4,4,4,4,4,4,4,4,4,4,4,4,4
3,0,4136.922852,4338.461426,4141.025391,4154.871582,4176.922852,4186.666504,4152.307617,4154.358887,4205.12793,4141.025391,4132.307617,4167.179199,4120,4138.461426,872,2028,2041,0,0,677,614,4,4,4,4,4,4,4,4,4,4,4,4,4,4,4,4
4,0,4139.487305,4337.94873,4141.538574,4151.794922,4194.358887,4186.153809,4151.794922,4152.307617,4197.94873,4124.615234,4135.384277,4166.666504,4111.794922,4139.487305,817,2027,2043,0,0,677,616,4,4,4,4,4,4,4,4,4,4,4,4,4,4,4,4
5,0,4149.230469,4339.487305,4143.589844,4146.666504,4139.487305,4178.461426,4154.871582,4146.666504,4195.384277,4130.256348,4120,4169.230469,4099.487305,4139.487305,724,2029,2044,0,0,677,624,4,4,4,4,4,4,4,4,4,4,4,4,4,4,4,4
6,0,4159.487305,4344.102539,4148.717773,4154.871582,4125.12793,4179.487305,4156.922852,4147.692383,4196.922852,4145.12793,4122.563965,4180,4115.897461,4152.820313,731,2030,2043,0,0,677,632,4,4,4,4,4,4,4,4,4,4,4,4,4,4,4,4
7,0,4165.641113,4351.794922,4150.256348,4163.589844,4184.102539,4184.102539,4153.846191,4150.769043,4200,4150.256348,4146.666504,4187.692383,4135.897461,4167.179199,762,2028,2047,0,0,677,646,4,4,4,4,4,4,4,4,4,4,4,4,4,4,4,4
8,0,4171.281738,4352.820313,4148.205078,4158.974121,4174.871582,4175.897461,4153.333008,4152.307617,4202.563965,4157.94873,4156.922852,4185.12793,4141.538574,4169.743652,632,2030,2050,0,0,677,648,4,4,4,4,4,4,4,4,4,4,4,4,4,4,4,4
9,0,4178.974121,4350.769043,4145.641113,4154.358887,4135.384277,4175.384277,4157.436035,4153.333008,4194.871582,4152.307617,4152.820313,4185.641113,4143.07666,4173.333008,817,2029,2052,0,0,677,655,4,4,4,4,4,4,4,4,4,4,4,4,4,4,4,4
10,0,4189.230469,4356.922852,4147.179199,4161.025391,4156.410156,4187.179199,4158.461426,4151.281738,4187.692383,4133.846191,4154.871582,4190.769043,4145.641113,4183.589844,821,2030,2054,0,0,677,663,4,4,4,4,4,4,4,4,4,4,4,4,4,4,4,4
11,0,4212.307617,4370.769043,4155.897461,4170.769043,4173.846191,4184.102539,4155.897461,4152.307617,4192.307617,4140,4158.461426,4197.94873,4150.769043,4199.487305,718,2031,2056,0,0,677,677,4,4,4,4,4,4,4,4,4,4,4,4,4,4,4,4
12,0,4241.025391,4378.974121,4168.717773,4179.487305,4143.589844,4168.717773,4153.333008,4154.358887,4196.922852,4152.307617,4161.538574,4210.769043,4158.461426,4221.025391,824,2032,2054,0,0,677,679,4,4,4,4,4,4,4,4,4,4,4,4,4,4,4,4
13,0,4253.333008,4375.897461,4173.846191,4184.102539,4113.846191,4167.179199,4156.922852,4154.358887,4191.794922,4141.538574,4165.641113,4218.461426,4157.436035,4237.436035,787,2033,2056,0,0,677,687,4,4,4,4,4,4,4,4,4,4,4,4,4,4,4,4
14,0,4257.94873,4378.461426,4167.692383,4181.025391,4131.281738,4173.846191,4161.025391,4157.94873,4186.153809,4140,4166.666504,4214.358887,4158.974121,4246.153809,821,2034,2057,0,0,677,695,4,4,4,4,4,4,4,4,4,4,4,4,4,4,4,4
15,0,4279.487305,4395.384277,4167.692383,4184.102539,4171.281738,4170.256348,4159.487305,4166.666504,4191.794922,4152.820313,4175.897461,4221.538574,4175.384277,4266.666504,718,2036,2057,0,0,677,709,4,4,4,4,4,4,4,4,4,4,4,4,4,4,4,4
16,0,4302.05127,4404.615234,4177.436035,4195.384277,4164.615234,4156.410156,4162.05127,4174.358887,4202.563965,4148.717773,4194.871582,4241.025391,4188.205078,4287.179199,0,2036,2058,0,0,677,711,4,4,4,4,4,4,4,4,4,4,4,4,4,4,4,4
17,0,4312.820313,4406.153809,4186.666504,4200,4125.12793,4148.717773,4165.12793,4175.384277,4202.563965,4144.615234,4205.641113,4249.743652,4197.436035,4294.871582,0,2038,2058,0,0,677,718,4,4,4,4,4,4,4,4,4,4,4,4,4,4,4,4
18,0,4323.589844,4406.666504,4188.717773,4201.538574,4114.358887,4158.974121,4157.436035,4171.794922,4191.281738,4156.410156,4201.025391,4247.692383,4208.205078,4303.07666,0,2038,2060,0,0,677,726,4,4,4,4,4,4,4,4,4,4,4,4,4,4,4,4
19,0,4330.769043,4397.435547,4191.794922,4201.538574,4142.563965,4168.205078,4152.820313,4166.153809,4185.12793,4157.94873,4194.871582,4247.179199,4212.307617,4313.333008,0,2039,2060,0,0,677,740,4,4,4,4,4,4,4,4,4,4,4,4,4,4,4,4
20,0,4331.794922,4389.743652,4194.871582,4197.436035,4162.05127,4168.205078,4163.589844,4165.12793,4187.692383,4154.871582,4198.461426,4247.692383,4214.358887,4320,0,2041,2061,0,0,677,742,4,4,4,4,4,4,4,4,4,4,4,4,4,4,4,4
21,0,4340.512695,4403.589844,4196.410156,4204.102539,4135.384277,4165.641113,4172.820313,4167.692383,4187.179199,4152.820313,4211.281738,4252.820313,4218.974121,4325.12793,0,2040,2062,0,0,677,750,4,4,4,4,4,4,4,4,4,4,4,4,4,4,4,4
22,0,4351.794922,4421.025391,4198.461426,4216.410156,4119.487305,4167.179199,4170.256348,4169.230469,4184.615234,4149.230469,4217.436035,4262.05127,4221.025391,4330.256348,0,2042,2064,0,0,677,758,4,4,4,4,4,4,4,4,4,4,4,4,4,4,4,4
23,0,4344.615234,4415.384277,4198.461426,4209.743652,4164.615234,4175.897461,4169.230469,4167.179199,4183.589844,4149.230469,4207.692383,4260,4217.94873,4323.589844,0,2042,2063,0,0,677,772,4,4,4,4,4,4,4,4,4,4,4,4,4,4,4,4
24,0,4333.846191,4399.487305,4196.922852,4198.461426,4180,4177.436035,4171.281738,4163.07666,4184.102539,4153.846191,4202.563965,4251.794922,4217.94873,4315.897461,0,2042,2063,0,0,677,774,4,4,4,4,4,4,4,4,4,4,4,4,4,4,4,4
25,0,4336.410156,4399.487305,4192.307617,4203.589844,4137.94873,4169.743652,4166.666504,4162.563965,4183.07666,4162.05127,4206.153809,4247.179199,4217.436035,4317.94873,0,2043,2064,0,0,677,781,4,4,4,4,4,4,4,4,4,4,4,4,4,4,4,4
26,0,4340.512695,4410.769043,4190.769043,4213.846191,4130.256348,4164.615234,4160,4164.615234,4178.974121,4165.12793,4205.641113,4248.205078,4211.794922,4322.05127,0,2043,2063,0,0,677,789,4,4,4,4,4,4,4,4,4,4,4,4,4,4,4,4
27,0,4343.589844,4415.384277,4197.436035,4218.974121,4142.05127,4162.05127,4162.563965,4172.820313,4183.589844,4162.05127,4218.461426,4263.07666,4221.025391,4330.769043,0,2041,2062,0,0,677,803,4,4,4,4,4,4,4,4,4,4,4,4,4,4,4,4
28,0,4341.538574,4406.153809,4194.871582,4211.281738,4141.025391,4164.102539,4169.230469,4184.615234,4191.794922,4164.615234,4233.846191,4274.871582,4235.897461,4333.846191,0,2045,2061,0,0,677,805,4,4,4,4,4,4,4,4,4,4,4,4,4,4,4,4
29,0,4330.256348,4395.897461,4183.07666,4200.512695,4161.025391,4175.897461,4167.692383,4189.230469,4195.897461,4173.846191,4221.025391,4265.641113,4223.07666,4322.05127,0,2045,2061,0,0,677,813,4,4,4,4,4,4,4,4,4,4,4,4,4,4,4,4
30,0,4326.153809,4403.07666,4180.512695,4208.205078,4165.12793,4171.281738,4160,4185.12793,4202.563965,4177.94873,4212.307617,4261.538574,4207.179199,4314.871582,0,2045,2063,0,0,677,821,4,4,4,4,4,4,4,4,4,4,4,4,4,4,4,4
31,0,4336.410156,4417.435547,4185.12793,4223.589844,4147.692383,4150.769043,4154.358887,4185.641113,4211.281738,4182.05127,4229.230469,4273.846191,4223.07666,4327.692383,0,2045,2062,0,0,677,835,4,4,4,4,4,4,4,4,4,4,4,4,4,4,4,4
32,0,4343.589844,4417.435547,4186.153809,4227.692383,4153.333008,4157.436035,4159.487305,4195.384277,4217.94873,4196.410156,4237.436035,4281.538574,4239.487305,4344.102539,0,2045,2062,0,0,677,837,4,4,4,4,4,4,4,4,4,4,4,4,4,4,4,4
33,0,4343.07666,4410.256348,4183.07666,4221.538574,4164.615234,4172.820313,4165.12793,4198.461426,4215.897461,4193.333008,4230.769043,4281.538574,4229.743652,4344.615234,0,2046,2062,0,0,677,845,4,4,4,4,4,4,4,4,4,4,4,4,4,4,4,4
34,0,4341.538574,4410.769043,4175.897461,4216.410156,4157.436035,4166.153809,4157.436035,4185.641113,4204.615234,4170.256348,4229.230469,4277.436035,4216.922852,4332.820313,0,2046,2062,0,0,677,852,4,4,4,4,4,4,4,4,4,4,4,4,4,4,4,4
35,0,4341.538574,4424.102539,4174.358887,4223.07666,4167.692383,4163.589844,4150.769043,4171.281738,4197.436035,4165.641113,4225.641113,4266.666504,4216.922852,4324.615234,0,2045,2061,0,0,677,866,4,4,4,4,4,4,4,4,4,4,4,4,4,4,4,4
36,0,4348.717773,4439.487305,4183.589844,4237.436035,4174.358887,4168.205078,4150.256348,4174.358887,4200.512695,4190.769043,4217.436035,4263.07666,4215.384277,4328.717773,0,2046,2062,0,0,677,868,4,4,4,4,4,4,4,4,4,4,4,4,4,4,4,4
37,0,4348.717773,4438.974121,4182.563965,4234.871582,4148.717773,4158.974121,4143.589844,4178.974121,4199.487305,4195.384277,4210.256348,4265.12793,4204.102539,4325.12793,0,2045,2062,0,0,677,876,4,4,4,4,4,4,4,4,4,4,4,4,4,4,4,4
38,0,4331.794922,4429.230469,4170.256348,4223.07666,4155.384277,4152.307617,4134.871582,4164.102539,4186.666504,4167.692383,4211.794922,4256.410156,4197.94873,4311.281738,0,2045,2063,0,0,677,884,4,4,4,4,4,4,4,4,4,4,4,4,4,4,4,4
39,0,4324.102539,4427.179199,4165.12793,4221.538574,4182.05127,4154.871582,4135.384277,4154.358887,4175.897461,4159.487305,4216.922852,4247.692383,4197.94873,4309.230469,0,2047,2063,0,0,677,898,4,4,4,4,4,4,4,4,4,4,4,4,4,4,4,4
40,0,4335.384277,4429.743652,4169.743652,4220.512695,4141.538574,4150.769043,4138.461426,4165.641113,4176.922852,4169.743652,4209.743652,4252.307617,4198.974121,4314.871582,0,2046,2063,0,0,677,899,4,4,4,4,4,4,4,4,4,4,4,4,4,4,4,4
41,0,4335.384277,4424.102539,4172.820313,4214.871582,4118.974121,4149.230469,4135.384277,4167.692383,4179.487305,4170.769043,4197.94873,4248.205078,4207.179199,4306.666504,0,2047,2062,0,0,677,908,4,4,4,4,4,4,4,4,4,4,4,4,4,4,4,4
42,0,4315.384277,4411.794922,4167.179199,4213.333008,4165.12793,4154.871582,4136.410156,4157.436035,4172.307617,4166.666504,4199.487305,4234.358887,4219.487305,4293.846191,0,2046,2063,0,0,677,916,4,4,4,4,4,4,4,4,4,4,4,4,4,4,4,4
43,0,4302.05127,4404.615234,4164.102539,4214.358887,4158.974121,4155.897461,4144.102539,4161.025391,4167.692383,4160,4207.179199,4235.384277,4216.922852,4292.307617,0,2045,2062,0,0,677,931,4,4,4,4,4,4,4,4,4,4,4,4,4,4,4,4
44,0,4293.333008,4396.410156,4164.102539,4208.205078,4129.743652,4153.333008,4143.07666,4164.102539,4171.281738,4156.922852,4200,4240.512695,4204.102539,4286.153809,0,2047,2061,0,0,677,931,4,4,4,4,4,4,4,4,4,4,4,4,4,4,4,4
45,0,4275.897461,4382.563965,4157.436035,4200.512695,4166.666504,4151.794922,4138.461426,4157.436035,4169.230469,4156.922852,4195.897461,4234.358887,4201.538574,4267.692383,0,2046,2059,0,0,677,939,4,4,4,4,4,4,4,4,4,4,4,4,4,4,4,4
46,0,4258.974121,4374.358887,4153.846191,4200.512695,4184.615234,4162.563965,4142.05127,4162.05127,4168.717773,4153.333008,4203.07666,4231.281738,4201.025391,4257.94873,0,2044,2059,0,0,677,947,4,4,4,4,4,4,4,4,4,4,4,4,4,4,4,4
47,0,4245.12793,4365.641113,4158.461426,4197.94873,4151.281738,4169.743652,4143.07666,4172.820313,4177.94873,4165.641113,4194.871582,4230.769043,4189.230469,4250.769043,0,2045,2058,0,0,677,961,4,4,4,4,4,4,4,4,4,4,4,4,4,4,4,4
48,0,4226.153809,4345.641113,4151.794922,4189.743652,4145.641113,4158.974121,4143.589844,4171.794922,4180,4187.179199,4180.512695,4215.897461,4181.538574,4230.769043,0,2046,2058,0,0,677,963,4,4,4,4,4,4,4,4,4,4,4,4,4,4,4,4
49,0,4209.230469,4328.205078,4138.974121,4183.589844,4174.358887,4158.461426,4149.230469,4169.743652,4177.436035,4181.025391,4184.102539,4204.102539,4181.538574,4214.871582,0,2044,2057,0,0,677,971,4,4,4,4,4,4,4,4,4,4,4,4,4,4,4,4
50,0,4195.897461,4321.538574,4135.384277,4176.410156,4182.563965,4170.256348,4145.641113,4168.717773,4174.871582,4162.05127,4181.538574,4204.615234,4170.769043,4205.12793,0,2042,2059,0,0,677,979,4,4,4,4,4,4,4,4,4,4,4,4,4,4,4,4
51,0,4180,4310.256348,4135.384277,4168.205078,4170.769043,4167.179199,4137.436035,4165.12793,4169.230469,4168.205078,4164.102539,4201.538574,4153.333008,4189.743652,0,2042,2056,0,0,677,994,4,4,4,4,4,4,4,4,4,4,4,4,4,4,4,4
52,0,4170.769043,4298.461426,4133.333008,4170.256348,4157.436035,4162.05127,4140.512695,4166.666504,4168.205078,4175.384277,4168.205078,4200.512695,4154.871582,4185.641113,0,2042,2057,0,0,677,994,4,4,4,4,4,4,4,4,4,4,4,4,4,4,4,4
53,0,4166.153809,4294.358887,4131.281738,4172.307617,4161.025391,4166.666504,4144.102539,4169.230469,4172.820313,4168.717773,4176.410156,4199.487305,4158.461426,4184.102539,0,2041,2057,0,0,678,2,4,4,4,4,4,4,4,4,4,4,4,4,4,4,4,4
54,0,4156.410156,4295.897461,4123.07666,4169.230469,4184.615234,4166.666504,4138.974121,4165.641113,4171.281738,4174.358887,4160.512695,4187.692383,4152.307617,4165.641113,0,2042,2059,0,0,678,10,4,4,4,4,4,4,4,4,4,4,4,4,4,4,4,4
55,0,4145.12793,4292.820313,4118.461426,4167.692383,4201.025391,4166.666504,4140.512695,4164.102539,4172.307617,4187.179199,4155.897461,4176.922852,4158.974121,4152.307617,0,2040,2057,0,0,678,24,4,4,4,4,4,4,4,4,4,4,4,4,4,4,4,4
56,0,4142.563965,4290.769043,4127.692383,4171.281738,4178.974121,4173.846191,4150.256348,4171.281738,4184.615234,4183.589844,4169.743652,4181.538574,4166.666504,4155.897461,0,2041,2057,0,0,678,26,4,4,4,4,4,4,4,4,4,4,4,4,4,4,4,4
57,0,4141.538574,4293.333008,4129.743652,4175.897461,4152.307617,4175.897461,4155.384277,4172.820313,4184.615234,4166.153809,4173.333008,4186.153809,4163.589844,4155.384277,0,2041,2056,0,0,678,33,4,4,4,4,4,4,4,4,4,4,4,4,4,4,4,4
58,0,4139.487305,4287.692383,4125.12793,4174.358887,4183.589844,4170.769043,4153.333008,4169.230469,4176.922852,4167.692383,4168.717773,4184.615234,4163.07666,4151.794922,0,2041,2057,0,0,678,42,4,4,4,4,4,4,4,4,4,4,4,4,4,4,4,4
59,0,4140,4278.974121,4131.281738,4171.281738,4213.333008,4170.769043,4154.358887,4177.94873,4181.538574,4188.717773,4170.769043,4190.769043,4165.12793,4155.897461,0,2042,2055,0,0,678,56,4,4,4,4,4,4,4,4,4,4,4,4,4,4,4,4
60,0,4133.333008,4276.410156,4133.333008,4171.281738,4186.666504,4174.871582,4157.436035,4187.179199,4184.102539,4189.743652,4165.641113,4190.769043,4154.871582,4151.794922,0,2042,2055,0,0,678,57,4,4,4,4,4,4,4,4,4,4,4,4,4,4,4,4
61,0,4122.05127,4267.692383,4124.102539,4166.666504,4166.153809,4173.333008,4153.846191,4186.153809,4177.94873,4171.794922,4160,4184.615234,4149.743652,4138.461426,0,2043,2053,0,0,678,65,4,4,4,4,4,4,4,4,4,4,4,4,4,4,4,4
62,0,4120,4254.871582,4122.05127,4158.461426,4167.179199,4167.692383,4154.871582,4186.666504,4179.487305,4167.692383,4171.794922,4189.743652,4160,4137.94873,0,2042,2051,0,0,678,73,4,4,4,4,4,4,4,4,4,4,4,4,4,4,4,4
63,0,4117.94873,4248.205078,4125.641113,4154.871582,4177.94873,4172.820313,4165.641113,4190.769043,4182.05127,4174.358887,4171.794922,4194.871582,4153.846191,4142.563965,0,2043,2051,0,0,678,87,4,4,4,4,4,4,4,4,4,4,4,4,4,4,4,4
64,0,4108.205078,4240,4125.641113,4152.307617,4167.692383,4179.487305,4167.692383,4185.12793,4172.820313,4169.230469,4155.384277,4188.205078,4135.897461,4136.922852,585,2043,2049,0,0,678,89,4,4,4,4,4,4,4,4,4,4,4,4,4,4,4,4
65,0,4106.153809,4230.256348,4129.230469,4149.230469,4142.05127,4170.769043,4162.05127,4179.487305,4168.717773,4166.153809,4151.794922,4186.153809,4134.871582,4133.846191,799,2043,2050,0,0,678,97,4,4,4,4,4,4,4,4,4,4,4,4,4,4,4,4
66,0,4113.846191,4232.820313,4132.820313,4151.794922,4170.769043,4166.153809,4166.666504,4183.07666,4179.487305,4179.487305,4154.358887,4190.769043,4138.461426,4137.436035,805,2043,2052,0,0,678,105,4,4,4,4,4,4,4,4,4,4,4,4,4,4,4,4
67,0,4110.769043,4234.871582,4129.230469,4152.820313,4215.384277,4176.410156,4171.281738,4182.05127,4181.538574,4185.12793,4149.743652,4187.179199,4136.410156,4134.358887,862,2043,2051,0,0,678,120,4,4,4,4,4,4,4,4,4,4,4,4,4,4,4,4
68,0,4104.102539,4227.692383,4127.179199,4151.794922,4192.820313,4177.436035,4162.05127,4174.871582,4173.846191,4169.743652,4154.358887,4184.102539,4138.461426,4131.281738,817,2046,2053,0,0,678,120,4,4,4,4,4,4,4,4,4,4,4,4,4,4,4,4
69,0,4108.205078,4227.179199,4127.179199,4153.846191,4151.281738,4169.230469,4158.974121,4176.922852,4176.410156,4165.12793,4166.153809,4187.692383,4143.07666,4134.871582,729,2046,2054,0,0,678,128,4,4,4,4,4,4,4,4,4,4,4,4,4,4,4,4
70,0,4113.846191,4229.743652,4126.153809,4154.358887,4154.358887,4169.230469,4168.205078,4185.641113,4185.641113,4176.922852,4169.230469,4187.179199,4144.615234,4135.384277,696,2046,2056,0,0,678,135,4,4,4,4,4,4,4,4,4,4,4,4,4,4,4,4
71,0,4116.922852,4222.563965,4127.692383,4153.846191,4156.922852,4176.410156,4171.281738,4189.230469,4185.641113,4187.179199,4171.794922,4184.102539,4153.846191,4134.358887,762,2046,2054,0,0,678,150,4,4,4,4,4,4,4,4,4,4,4,4,4,4,4,4
72,0,4116.922852,4217.436035,4131.281738,4156.410156,4150.256348,4182.05127,4169.743652,4185.641113,4178.461426,4193.333008,4170.256348,4184.102539,4157.94873,4136.410156,611,2046,2055,0,0,678,152,4,4,4,4,4,4,4,4,4,4,4,4,4,4,4,4
73,0,4112.307617,4215.897461,4130.256348,4156.922852,4176.410156,4183.07666,4171.281738,4183.07666,4173.846191,4186.153809,4161.538574,4185.12793,4148.717773,4138.461426,817,2044,2053,0,0,678,160,4,4,4,4,4,4,4,4,4,4,4,4,4,4,4,4
74,0,4108.205078,4211.794922,4126.666504,4153.333008,4189.743652,4178.974121,4170.256348,4182.05127,4168.717773,4168.717773,4160.512695,4183.07666,4145.12793,4136.922852,821,2046,2050,0,0,678,167,4,4,4,4,4,4,4,4,4,4,4,4,4,4,4,4
75,0,4109.743652,4203.589844,4128.205078,4153.846191,4159.487305,4178.461426,4171.281738,4185.641113,4169.743652,4172.820313,4169.743652,4185.12793,4152.307617,4138.461426,718,2046,2050,0,0,678,182,4,4,4,4,4,4,4,4,4,4,4,4,4,4,4,4
76,0,4110.256348,4191.794922,4129.743652,4155.897461,4146.666504,4184.102539,4174.871582,4189.230469,4176.410156,4185.12793,4173.333008,4186.153809,4156.410156,4141.025391,824,2046,2051,0,0,678,183,4,4,4,4,4,4,4,4,4,4,4,4,4,4,4,4
77,0,4103.07666,4181.025391,4124.102539,4152.820313,4178.461426,4185.641113,4174.871582,4184.102539,4172.307617,4180.512695,4162.05127,4173.846191,4150.256348,4134.871582,787,2046,2051,0,0,678,191,4,4,4,4,4,4,4,4,4,4,4,4,4,4,4,4
78,0,4107.692383,4182.05127,4125.641113,4153.846191,4188.205078,4185.12793,4177.436035,4183.07666,4170.769043,4188.205078,4155.384277,4170.256348,4152.820313,4132.307617,821,2046,2050,0,0,678,199,4,4,4,4,4,4,4,4,4,4,4,4,4,4,4,4
79,0,4120.512695,4185.641113,4132.820313,4158.461426,4153.846191,4186.153809,4182.05127,4189.743652,4183.07666,4197.94873,4173.333008,4189.743652,4167.692383,4147.179199,718,2045,2049,0,0,678,213,4,4,4,4,4,4,4,4,4,4,4,4,4,4,4,4
80,0,4120.512695,4185.12793,4131.281738,4162.05127,4154.358887,4185.12793,4183.589844,4189.230469,4183.589844,4183.07666,4187.692383,4203.07666,4175.384277,4154.871582,824,2045,2048,0,0,678,215,4,4,4,4,4,4,4,4,4,4,4,4,4,4,4,4
81,0,4112.820313,4182.05127,4125.12793,4160.512695,4198.461426,4184.615234,4182.05127,4182.05127,4169.230469,4178.974121,4175.897461,4195.897461,4168.205078,4143.07666,787,2044,2048,0,0,678,223,4,4,4,4,4,4,4,4,4,4,4,4,4,4,4,4
82,0,4107.692383,4167.692383,4125.12793,4153.333008,4207.179199,4184.615234,4176.922852,4184.102539,4168.205078,4191.281738,4163.589844,4188.205078,4157.436035,4135.897461,821,2042,2048,0,0,678,230,4,4,4,4,4,4,4,4,4,4,4,4,4,4,4,4
83,0,4104.615234,4157.94873,4125.641113,4149.230469,4169.743652,4183.589844,4171.281738,4182.563965,4173.846191,4186.666504,4165.12793,4184.102539,4153.333008,4136.922852,718,2044,2050,0,0,678,245,4,4,4,4,4,4,4,4,4,4,4,4,4,4,4,4
84,0,4107.692383,4166.666504,4124.615234,4154.358887,4160,4181.538574,4170.769043,4174.871582,4168.205078,4176.922852,4167.179199,4181.025391,4155.897461,4135.897461,824,2042,2049,0,0,678,245,4,4,4,4,4,4,4,4,4,4,4,4,4,4,4,4
85,0,4116.410156,4171.281738,4129.230469,4159.487305,4177.436035,4182.563965,4173.333008,4178.461426,4166.153809,4184.102539,4166.666504,4185.641113,4163.07666,4138.461426,787,2041,2051,0,0,678,254,4,4,4,4,4,4,4,4,4,4,4,4,4,4,4,4
86,0,4117.94873,4162.05127,4136.922852,4160,4172.820313,4185.12793,4172.820313,4186.666504,4173.333008,4191.794922,4165.641113,4188.717773,4166.666504,4142.05127,821,2041,2052,0,0,678,261,4,4,4,4,4,4,4,4,4,4,4,4,4,4,4,4
87,0,4111.794922,4155.384277,4135.897461,4157.94873,4176.410156,4184.102539,4173.333008,4186.666504,4174.871582,4184.615234,4165.641113,4185.12793,4166.153809,4140,718,2043,2051,0,0,678,276,4,4,4,4,4,4,4,4,4,4,4,4,4,4,4,4
88,0,4107.692383,4152.307617,4130.256348,4155.897461,4192.820313,4182.05127,4171.794922,4184.102539,4173.333008,4182.05127,4167.179199,4178.461426,4167.179199,4136.922852,824,2041,2053,0,0,678,277,4,4,4,4,4,4,4,4,4,4,4,4,4,4,4,4
89,0,4112.307617,4155.897461,4130.769043,4161.025391,4168.205078,4182.563965,4170.256348,4184.102539,4172.820313,4192.820313,4170.256348,4175.897461,4170.256348,4136.410156,787,2039,2054,0,0,678,286,4,4,4,4,4,4,4,4,4,4,4,4,4,4,4,4
90,0,4121.538574,4167.692383,4135.384277,4172.307617,4143.589844,4184.615234,4172.820313,4187.179199,4173.846191,4196.922852,4176.922852,4182.05127,4171.794922,4138.974121,821,2039,2054,0,0,678,294,4,4,4,4,4,4,4,4,4,4,4,4,4,4,4,4
91,0,4124.102539,4171.281738,4134.871582,4173.333008,4175.897461,4185.641113,4173.846191,4190.256348,4177.94873,4193.333008,4182.05127,4188.717773,4173.333008,4143.589844,718,2039,2053,0,0,678,308,4,4,4,4,4,4,4,4,4,4,4,4,4,4,4,4
92,0,4122.05127,4164.615234,4132.307617,4167.179199,4204.615234,4184.615234,4170.256348,4187.179199,4177.94873,4198.974121,4176.922852,4189.230469,4176.410156,4147.179199,824,2039,2053,0,0,678,309,4,4,4,4,4,4,4,4,4,4,4,4,4,4,4,4
93,0,4122.563965,4167.179199,4131.281738,4169.743652,4184.615234,4184.102539,4166.666504,4181.025391,4172.820313,4200.512695,4178.461426,4192.820313,4179.487305,4150.769043,787,2039,2051,0,0,678,316,4,4,4,4,4,4,4,4,4,4,4,4,4,4,4,4
94,0,4127.692383,4175.384277,4133.333008,4175.897461,4178.461426,4185.641113,4171.281738,4184.615234,4169.743652,4190.769043,4191.794922,4202.563965,4185.12793,4155.384277,821,2039,2052,0,0,678,325,4,4,4,4,4,4,4,4,4,4,4,4,4,4,4,4
95,0,4130.256348,4168.205078,4136.410156,4176.410156,4188.205078,4187.179199,4179.487305,4190.256348,4174.358887,4195.897461,4192.820313,4202.563965,4188.717773,4158.974121,718,2039,2053,0,0,678,339,4,4,4,4,4,4,4,4,4,4,4,4,4,4,4,4
96,0,4125.12793,4154.871582,4129.230469,4174.358887,4176.410156,4186.666504,4175.897461,4185.12793,4172.307617,4202.05127,4177.436035,4190.769043,4181.025391,4151.281738,824,2040,2055,0,0,678,341,4,4,4,4,4,4,4,4,4,4,4,4,4,4,4,4
97,0,4112.820313,4151.794922,4120,4172.307617,4169.230469,4182.05127,4167.179199,4171.794922,4160,4184.102539,4166.153809,4180.512695,4166.666504,4137.436035,787,2039,2055,0,0,678,349,4,4,4,4,4,4,4,4,4,4,4,4,4,4,4,4
98,0,4108.717773,4147.692383,4120.512695,4163.589844,4174.358887,4181.538574,4167.179199,4168.717773,4152.307617,4174.358887,4167.692383,4180,4164.615234,4135.384277,821,2038,2054,0,0,678,356,4,4,4,4,4,4,4,4,4,4,4,4,4,4,4,4
99,0,4112.307617,4140.512695,4122.563965,4160.512695,4169.743652,4184.102539,4168.717773,4177.436035,4157.94873,4186.666504,4172.820313,4183.589844,4171.794922,4143.589844,718,2036,2053,0,0,678,371,4,4,4,4,4,4,4,4,4,4,4,4,4,4,4,4
100,0,4110.256348,4133.846191,4118.974121,4162.563965,4166.153809,4183.589844,4167.692383,4184.615234,4167.179199,4189.230469,4172.820313,4184.102539,4171.794922,4141.538574,824,2035,2052,0,0,678,372,4,4,4,4,4,4,4,4,4,4,4,4,4,4,4,4
101,0,4112.307617,4131.281738,4124.102539,4162.563965,4170.256348,4183.07666,4172.307617,4188.717773,4171.281738,4180.512695,4172.820313,4187.179199,4168.717773,4137.94873,787,2035,2053,0,0,678,379,4,4,4,4,4,4,4,4,4,4,4,4,4,4,4,4
102,0,4122.05127,4145.641113,4129.230469,4164.615234,4171.281738,4184.615234,4170.256348,4185.641113,4170.769043,4190.769043,4170.769043,4186.153809,4168.717773,4143.589844,821,2036,2054,0,0,678,388,4,4,4,4,4,4,4,4,4,4,4,4,4,4,4,4
103,0,4125.12793,4169.743652,4121.538574,4174.358887,4165.12793,4180.512695,4162.05127,4173.846191,4162.05127,4195.897461,4162.05127,4175.384277,4163.589844,4141.538574,718,2036,2055,0,0,678,401,4,4,4,4,4,4,4,4,4,4,4,4,4,4,4,4
104,0,4123.07666,4180,4119.487305,4181.538574,4168.717773,4170.256348,4164.102539,4166.153809,4151.281738,4171.281738,4155.384277,4168.717773,4149.743652,4133.333008,824,2036,2057,0,0,678,404,4,4,4,4,4,4,4,4,4,4,4,4,4,4,4,4
105,0,4127.692383,4180.512695,4126.666504,4183.07666,4183.589844,4170.769043,4168.717773,4167.692383,4153.846191,4164.615234,4155.384277,4172.307617,4142.563965,4133.333008,787,2034,2056,0,0,678,411,4,4,4,4,4,4,4,4,4,4,4,4,4,4,4,4
106,0,4129.743652,4180,4129.230469,4182.05127,4180.512695,4182.05127,4166.666504,4166.666504,4157.94873,4181.025391,4153.333008,4171.794922,4141.025391,4133.333008,821,2034,2055,0,0,678,420,4,4,4,4,4,4,4,4,4,4,4,4,4,4,4,4
107,0,4122.563965,4168.205078,4125.641113,4177.94873,4163.589844,4184.615234,4167.692383,4165.12793,4153.846191,4173.333008,4150.769043,4170.769043,4135.384277,4127.179199,718,2034,2054,0,0,678,434,4,4,4,4,4,4,4,4,4,4,4,4,4,4,4,4
108,0,4113.333008,4152.820313,4124.102539,4170.769043,4169.743652,4175.897461,4172.307617,4171.281738,4155.384277,4157.94873,4148.205078,4171.281738,4126.153809,4122.563965,824,2036,2055,0,0,678,436,4,4,4,4,4,4,4,4,4,4,4,4,4,4,4,4
109,0,4099.487305,4141.538574,4116.410156,4159.487305,4169.230469,4170.256348,4170.256348,4166.153809,4154.358887,4162.563965,4132.307617,4153.846191,4116.410156,4108.205078,787,2036,2054,0,0,678,443,4,4,4,4,4,4,4,4,4,4,4,4,4,4,4,4
110,0,4090.256348,4127.692383,4106.153809,4150.256348,4146.666504,4170.769043,4168.717773,4153.333008,4141.025391,4160,4112.820313,4132.820313,4107.692383,4089.743408,821,2035,2053,0,0,678,450,4,4,4,4,4,4,4,4,4,4,4,4,4,4,4,4
111,0,4092.820313,4121.025391,4111.281738,4151.794922,4150.256348,4170.256348,4173.333008,4152.820313,4134.358887,4143.07666,4108.717773,4134.871582,4097.94873,4088.205078,718,2034,2053,0,0,678,465,4,4,4,4,4,4,4,4,4,4,4,4,4,4,4,4
112,0,4092.820313,4122.563965,4116.410156,4153.333008,4161.025391,4169.743652,4174.871582,4155.897461,4136.922852,4136.410156,4113.846191,4140.512695,4090.256348,4092.820313,824,2036,2053,0,0,678,467,4,4,4,4,4,4,4,4,4,4,4,4,4,4,4,4
113,0,4090.256348,4121.025391,4110.769043,4149.230469,4157.94873,4170.769043,4175.897461,4152.820313,4136.922852,4138.974121,4113.846191,4136.922852,4093.333252,4087.692139,787,2036,2054,0,0,678,475,4,4,4,4,4,4,4,4,4,4,4,4,4,4,4,4
114,0,4092.307617,4115.897461,4109.230469,4146.666504,4162.563965,4171.794922,4182.05127,4156.922852,4137.94873,4137.94873,4117.436035,4137.436035,4103.589844,4088.717773,821,2037,2052,0,0,678,483,4,4,4,4,4,4,4,4,4,4,4,4,4,4,4,4
115,0,4096.922852,4120.512695,4114.871582,4151.794922,4165.641113,4172.820313,4188.717773,4165.641113,4141.538574,4140.512695,4129.743652,4143.07666,4110.256348,4100.512695,718,2036,2051,0,0,678,497,4,4,4,4,4,4,4,4,4,4,4,4,4,4,4,4
116,0,4098.974121,4125.12793,4113.846191,4154.871582,4167.179199,4171.281738,4186.153809,4160,4141.538574,4153.846191,4124.615234,4142.05127,4108.205078,4104.102539,824,2039,2051,0,0,678,499,4,4,4,4,4,4,4,4,4,4,4,4,4,4,4,4
117,0,4096.922852,4115.897461,4112.307617,4150.256348,4166.153809,4169.230469,4183.07666,4150.256348,4138.461426,4158.461426,4110.769043,4138.461426,4105.12793,4096.922852,787,2040,2051,0,0,678,507,4,4,4,4,4,4,4,4,4,4,4,4,4,4,4,4
118,0,4098.461426,4111.281738,4115.897461,4149.230469,4152.820313,4174.358887,4185.641113,4153.333008,4136.410156,4141.025391,4121.538574,4143.589844,4106.666504,4097.94873,821,2039,2053,0,0,678,513,4,4,4,4,4,4,4,4,4,4,4,4,4,4,4,4
119,0,4103.589844,4113.333008,4114.871582,4152.307617,4159.487305,4177.94873,4187.692383,4166.666504,4145.641113,4140.512695,4141.538574,4153.846191,4113.846191,4105.12793,718,2038,2054,0,0,678,528,4,4,4,4,4,4,4,4,4,4,4,4,4,4,4,4
120,0,4107.179199,4111.281738,4108.717773,4152.307617,4173.333008,4172.820313,4187.692383,4174.358887,4158.461426,4172.307617,4142.05127,4155.384277,4123.589844,4107.179199,824,2038,2054,0,0,678,530,4,4,4,4,4,4,4,4,4,4,4,4,4,4,4,4
121,0,4105.641113,4111.281738,4108.205078,4152.820313,4146.153809,4166.666504,4184.615234,4168.205078,4153.333008,4177.94873,4129.743652,4150.769043,4121.025391,4105.641113,787,2039,2054,0,0,678,537,4,4,4,4,4,4,4,4,4,4,4,4,4,4,4,4
122,0,4102.563965,4111.794922,4110.256348,4150.256348,4142.563965,4169.230469,4183.07666,4161.538574,4146.666504,4155.897461,4127.179199,4150.769043,4110.256348,4104.102539,821,2041,2052,0,0,678,546,4,4,4,4,4,4,4,4,4,4,4,4,4,4,4,4
123,0,4097.94873,4106.153809,4104.102539,4145.12793,4187.692383,4171.281738,4185.641113,4163.589844,4151.794922,4157.436035,4134.358887,4155.897461,4112.307617,4105.641113,718,2040,2052,0,0,678,559,4,4,4,4,4,4,4,4,4,4,4,4,4,4,4,4
124,0,4097.436035,4104.615234,4097.94873,4147.179199,4185.641113,4170.769043,4183.589844,4159.487305,4149.230469,4169.743652,4142.05127,4162.563965,4124.615234,4109.230469,824,2040,2054,0,0,678,561,4,4,4,4,4,4,4,4,4,4,4,4,4,4,4,4
125,0,4100,4107.692383,4100,4151.794922,4156.410156,4174.358887,4179.487305,4150.256348,4139.487305,4158.974121,4140,4164.102539,4124.102539,4109.230469,787,2040,2056,0,0,678,570,4,4,4,4,4,4,4,4,4,4,4,4,4,4,4,4
126,0,4104.615234,4106.666504,4102.563965,4152.307617,4163.07666,4176.410156,4184.102539,4151.794922,4138.461426,4149.230469,4144.615234,4163.589844,4128.717773,4115.384277,821,2042,2056,0,0,678,576,4,4,4,4,4,4,4,4,4,4,4,4,4,4,4,4
127,0,4113.846191,4108.205078,4103.589844,4154.871582,4166.666504,4172.820313,4188.717773,4157.94873,4140.512695,4155.384277,4156.922852,4167.179199,4144.102539,4124.102539,718,2042,2056,0,0,678,591,4,4,4,4,4,4,4,4,4,4,4,4,4,4,4,4
128,0,4112.820313,4110.769043,4101.538574,4154.358887,4154.871582,4171.281738,4183.589844,4156.410156,4138.974121,4157.94873,4143.589844,4162.05127,4133.333008,4113.846191,824,2041,2057,0,0,678,592,4,4,4,4,4,4,4,4,4,4,4,4,4,4,4,4
0,0,4103.07666,4105.641113,4096.410156,4148.205078,4165.12793,4173.846191,4181.025391,4153.333008,4137.94873,4156.410156,4124.102539,4149.230469,4112.820313,4099.487305,585,2041,2055,0,0,678,600,4,4,4,4,4,4,4,4,4,4,4,4,4,4,4,4
1,0,4102.05127,4101.025391,4094.358887,4147.179199,4177.94873,4173.333008,4181.538574,4152.820313,4132.820313,4149.743652,4131.794922,4146.666504,4118.461426,4103.07666,799,2042,2055,0,0,678,609,4,4,4,4,4,4,4,4,4,4,4,4,4,4,4,4
2,0,4107.179199,4102.05127,4097.436035,4150.769043,4162.563965,4169.230469,4181.538574,4151.794922,4130.256348,4144.615234,4147.179199,4151.794922,4126.153809,4109.230469,805,2043,2056,0,0,678,623,4,4,4,4,4,4,4,4,4,4,4,4,4,4,4,4
3,0,4110.769043,4103.589844,4098.461426,4151.794922,4156.410156,4170.769043,4182.05127,4151.794922,4132.307617,4155.384277,4140.512695,4151.794922,4120,4107.692383,862,2043,2054,0,0,678,624,4,4,4,4,4,4,4,4,4,4,4,4,4,4,4,4
4,0,4116.922852,4109.743652,4098.974121,4154.358887,4166.153809,4171.281738,4176.410156,4154.358887,4132.820313,4163.589844,4134.358887,4154.358887,4123.589844,4114.871582,817,2042,2056,0,0,678,633,4,4,4,4,4,4,4,4,4,4,4,4,4,4,4,4
5,0,4125.12793,4119.487305,4103.589844,4153.846191,4167.179199,4166.666504,4175.384277,4151.794922,4129.743652,4152.820313,4148.205078,4163.07666,4136.410156,4124.102539,729,2044,2057,0,0,678,640,4,4,4,4,4,4,4,4,4,4,4,4,4,4,4,4
6,0,4124.102539,4122.05127,4102.05127,4154.871582,4174.358887,4158.974121,4182.563965,4145.641113,4128.205078,4149.230469,4153.333008,4168.717773,4136.410156,4124.102539,720,2044,2057,0,0,678,654,4,4,4,4,4,4,4,4,4,4,4,4,4,4,4,4
7,0,4124.102539,4120,4097.436035,4162.05127,4178.461426,4153.846191,4182.05127,4150.769043,4135.384277,4162.563965,4151.281738,4169.743652,4136.410156,4126.666504,762,2043,2056,0,0,678,655,4,4,4,4,4,4,4,4,4,4,4,4,4,4,4,4
8,0,4134.358887,4123.589844,4102.05127,4164.615234,4167.179199,4161.025391,4175.897461,4157.94873,4142.05127,4170.769043,4156.922852,4171.794922,4143.589844,4135.897461,625,2042,2055,0,0,678,664,4,4,4,4,4,4,4,4,4,4,4,4,4,4,4,4
9,0,4135.897461,4121.538574,4107.692383,4158.974121,4164.615234,4167.692383,4173.333008,4151.794922,4136.922852,4167.692383,4156.922852,4167.692383,4143.07666,4133.846191,816,2044,2057,0,0,678,672,4,4,4,4,4,4,4,4,4,4,4,4,4,4,4,4
10,0,4122.05127,4112.307617,4104.102539,4153.846191,4177.436035,4159.487305,4170.769043,4145.12793,4128.717773,4160.512695,4147.692383,4154.871582,4136.410156,4120.512695,824,2044,2058,0,0,678,686,4,4,4,4,4,4,4,4,4,4,4,4,4,4,4,4
11,0,4123.589844,4115.897461,4103.07666,4156.410156,4169.743652,4151.794922,4169.230469,4154.871582,4133.846191,4150.769043,4157.436035,4158.461426,4139.487305,4125.12793,718,2044,2059,0,0,678,688,4,4,4,4,4,4,4,4,4,4,4,4,4,4,4,4
12,0,4140,4126.666504,4109.230469,4161.538574,4156.410156,4153.333008,4170.256348,4163.589844,4141.538574,4154.871582,4170.769043,4173.333008,4144.615234,4141.025391,824,2044,2059,0,0,678,696,4,4,4,4,4,4,4,4,4,4,4,4,4,4,4,4
13,0,4139.487305,4125.641113,4108.717773,4159.487305,4160,4151.281738,4168.717773,4159.487305,4141.538574,4171.281738,4157.94873,4170.769043,4142.05127,4141.538574,787,2043,2059,0,0,678,704,4,4,4,4,4,4,4,4,4,4,4,4,4,4,4,4
14,0,4130.769043,4118.461426,4102.563965,4154.358887,4146.666504,4149.743652,4168.205078,4154.871582,4136.410156,4170.769043,4154.358887,4164.102539,4147.692383,4134.871582,824,2043,2059,0,0,678,719,4,4,4,4,4,4,4,4,4,4,4,4,4,4,4,4
15,0,4136.410156,4123.589844,4102.563965,4153.333008,4136.922852,4151.281738,4170.256348,4154.358887,4134.358887,4154.358887,4169.743652,4168.205078,4156.922852,4141.025391,718,2043,2060,0,0,678,719,4,4,4,4,4,4,4,4,4,4,4,4,4,4,4,4
16,0,4151.281738,4135.897461,4103.589844,4158.974121,4162.05127,4147.179199,4168.205078,4150.769043,4138.461426,4154.358887,4173.333008,4170.256348,4155.897461,4154.358887,0,2043,2060,0,0,678,726,4,4,4,4,4,4,4,4,4,4,4,4,4,4,4,4
17,0,4163.589844,4139.487305,4104.615234,4162.05127,4178.974121,4141.025391,4164.102539,4144.615234,4134.358887,4162.563965,4165.12793,4168.717773,4153.333008,4162.563965,0,2041,2061,0,0,678,735,4,4,4,4,4,4,4,4,4,4,4,4,4,4,4,4
18,0,4180,4142.05127,4112.307617,4165.12793,4165.641113,4141.025391,4167.179199,4147.179199,4126.153809,4156.410156,4168.205078,4175.897461,4161.025391,4174.871582,0,2042,2061,0,0,678,749,4,4,4,4,4,4,4,4,4,4,4,4,4,4,4,4
19,0,4205.12793,4157.94873,4121.025391,4173.846191,4166.666504,4141.025391,4169.230469,4152.307617,4126.666504,4148.205078,4178.461426,4184.615234,4174.358887,4194.358887,0,2042,2060,0,0,678,751,4,4,4,4,4,4,4,4,4,4,4,4,4,4,4,4
20,0,4229.230469,4178.461426,4124.615234,4183.07666,4164.102539,4134.358887,4163.589844,4147.692383,4129.230469,4150.256348,4181.538574,4185.12793,4184.102539,4211.281738,0,2041,2059,0,0,678,758,4,4,4,4,4,4,4,4,4,4,4,4,4,4,4,4
21,0,4249.230469,4188.717773,4128.205078,4186.666504,4116.922852,4130.256348,4161.025391,4141.538574,4126.153809,4154.871582,4181.538574,4184.615234,4188.717773,4224.102539,0,2043,2058,0,0,678,767,4,4,4,4,4,4,4,4,4,4,4,4,4,4,4,4
22,0,4269.230469,4189.230469,4129.743652,4187.692383,4100.512695,4129.743652,4168.717773,4142.05127,4121.025391,4152.820313,4187.692383,4193.333008,4195.897461,4241.538574,0,2042,2058,0,0,678,782,4,4,4,4,4,4,4,4,4,4,4,4,4,4,4,4
23,0,4289.743652,4187.692383,4132.820313,4185.12793,4144.102539,4126.666504,4171.794922,4146.153809,4122.563965,4147.692383,4201.538574,4209.743652,4211.281738,4266.666504,0,2043,2058,0,0,678,782,4,4,4,4,4,4,4,4,4,4,4,4,4,4,4,4
24,0,4314.358887,4195.897461,4145.12793,4188.205078,4172.307617,4127.692383,4170.769043,4153.846191,4132.820313,4159.487305,4215.897461,4226.153809,4230.769043,4292.820313,0,2042,2058,0,0,678,790,4,4,4,4,4,4,4,4,4,4,4,4,4,4,4,4
25,0,4340,4202.05127,4156.922852,4201.025391,4157.94873,4134.871582,4178.974121,4163.07666,4141.025391,4176.410156,4231.794922,4239.487305,4253.846191,4317.94873,0,2042,2058,0,0,678,798,4,4,4,4,4,4,4,4,4,4,4,4,4,4,4,4
26,0,4345.641113,4184.615234,4161.538574,4198.461426,4131.794922,4136.922852,4186.153809,4167.692383,4140,4171.281738,4248.717773,4249.230469,4274.358887,4330.769043,0,2042,2057,0,0,678,812,4,4,4,4,4,4,4,4,4,4,4,4,4,4,4,4
27,0,4340,4170.256348,4165.641113,4187.692383,4120.512695,4132.820313,4185.12793,4167.692383,4138.974121,4169.743652,4254.871582,4253.333008,4283.589844,4332.307617,0,2042,2059,0,0,678,814,4,4,4,4,4,4,4,4,4,4,4,4,4,4,4,4
28,0,4336.922852,4163.07666,4163.07666,4186.666504,4130.256348,4134.871582,4184.615234,4165.641113,4141.538574,4188.717773,4247.179199,4253.333008,4281.025391,4330.256348,0,2041,2057,0,0,678,822,4,4,4,4,4,4,4,4,4,4,4,4,4,4,4,4
29,0,4319.487305,4126.666504,4154.358887,4176.922852,4141.538574,4138.461426,4185.641113,4159.487305,4138.974121,4189.230469,4232.307617,4247.179199,4266.153809,4317.436035,0,2041,2056,0,0,678,829,4,4,4,4,4,4,4,4,4,4,4,4,4,4,4,4
30,0,4299.487305,4094.358887,4154.358887,4162.563965,4141.025391,4137.94873,4187.179199,4155.384277,4136.410156,4170.769043,4227.692383,4237.94873,4258.461426,4302.05127,0,2040,2057,0,0,678,845,4,4,4,4,4,4,4,4,4,4,4,4,4,4,4,4
31,0,4298.461426,4103.07666,4156.410156,4169.230469,4138.974121,4136.410156,4187.692383,4161.538574,4139.487305,4166.153809,4237.436035,4234.871582,4264.102539,4297.94873,0,2040,2057,0,0,678,845,4,4,4,4,4,4,4,4,4,4,4,4,4,4,4,4
32,0,4292.820313,4101.538574,4147.692383,4174.358887,4135.897461,4133.846191,4185.641113,4167.692383,4140.512695,4167.692383,4231.281738,4228.205078,4257.94873,4290.256348,0,2040,2059,0,0,678,852,4,4,4,4,4,4,4,4,4,4,4,4,4,4,4,4
33,0,4270.769043,4072.307617,4141.538574,4162.05127,4137.436035,4135.897461,4185.12793,4165.12793,4137.94873,4173.333008,4211.794922,4216.922852,4243.07666,4272.307617,0,2040,2058,0,0,678,861,4,4,4,4,4,4,4,4,4,4,4,4,4,4,4,4
34,0,4259.487305,4061.53833,4150.769043,4160.512695,4144.102539,4137.94873,4190.256348,4166.666504,4145.12793,4186.153809,4214.358887,4221.025391,4245.12793,4266.666504,0,2040,2059,0,0,678,875,4,4,4,4,4,4,4,4,4,4,4,4,4,4,4,4
35,0,4250.256348,4064.615234,4157.436035,4167.179199,4143.589844,4130.256348,4194.871582,4173.846191,4157.94873,4188.717773,4222.563965,4229.230469,4248.205078,4261.025391,0,2040,2059,0,0,678,876,4,4,4,4,4,4,4,4,4,4,4,4,4,4,4,4
36,0,4227.179199,4052.820313,4147.179199,4159.487305,4142.05127,4126.153809,4198.461426,4169.743652,4152.307617,4182.563965,4204.102539,4211.794922,4230.256348,4237.94873,0,2040,2058,0,0,678,885,4,4,4,4,4,4,4,4,4,4,4,4,4,4,4,4
37,0,4213.846191,4038.974365,4139.487305,4148.205078,4156.410156,4134.358887,4203.589844,4163.589844,4142.563965,4181.538574,4191.281738,4193.846191,4215.384277,4220,0,2038,2057,0,0,678,893,4,4,4,4,4,4,4,4,4,4,4,4,4,4,4,4
38,0,4211.281738,4030.256348,4144.102539,4148.717773,4157.94873,4139.487305,4203.07666,4169.230469,4148.205078,4180,4198.974121,4200,4215.897461,4217.94873,0,2037,2058,0,0,678,908,4,4,4,4,4,4,4,4,4,4,4,4,4,4,4,4
39,0,4203.07666,4022.05127,4143.07666,4148.717773,4130.769043,4137.94873,4202.563965,4165.641113,4145.641113,4163.589844,4195.384277,4200.512695,4216.410156,4215.384277,0,2037,2058,0,0,678,908,4,4,4,4,4,4,4,4,4,4,4,4,4,4,4,4
40,0,4194.358887,4015.384521,4134.358887,4139.487305,4129.743652,4137.94873,4206.153809,4151.794922,4134.358887,4151.281738,4184.102539,4187.179199,4211.794922,4210.256348,0,2037,2059,0,0,678,915,4,4,4,4,4,4,4,4,4,4,4,4,4,4,4,4
41,0,4198.974121,4013.845947,4136.922852,4135.384277,4160,4141.025391,4197.94873,4151.794922,4136.410156,4165.641113,4184.615234,4185.641113,4209.230469,4210.769043,0,2036,2060,0,0,678,924,4,4,4,4,4,4,4,4,4,4,4,4,4,4,4,4
42,0,4211.794922,4015.384521,4145.641113,4141.025391,4156.410156,4141.538574,4185.12793,4159.487305,4141.025391,4177.436035,4193.333008,4198.974121,4215.384277,4214.871582,0,2036,2061,0,0,678,938,4,4,4,4,4,4,4,4,4,4,4,4,4,4,4,4
43,0,4224.102539,4021.53833,4147.179199,4149.230469,4127.692383,4139.487305,4190.256348,4156.922852,4139.487305,4172.820313,4197.94873,4208.205078,4222.563965,4223.589844,0,2037,2062,0,0,678,939,4,4,4,4,4,4,4,4,4,4,4,4,4,4,4,4
44,0,4245.12793,4042.05127,4150.769043,4162.563965,4138.461426,4142.05127,4201.025391,4160,4149.230469,4182.563965,4203.589844,4214.871582,4230.256348,4242.563965,0,2036,2061,0,0,678,947,4,4,4,4,4,4,4,4,4,4,4,4,4,4,4,4
45,0,4266.153809,4060.512695,4156.922852,4171.794922,4160,4152.820313,4202.05127,4170.256348,4158.461426,4190.256348,4211.281738,4224.102539,4237.436035,4259.487305,0,2037,2060,0,0,678,955,4,4,4,4,4,4,4,4,4,4,4,4,4,4,4,4
46,0,4281.025391,4067.179443,4161.025391,4172.820313,4151.794922,4153.846191,4198.461426,4171.281738,4153.333008,4176.922852,4215.384277,4232.820313,4243.07666,4269.743652,0,2036,2061,0,0,678,970,4,4,4,4,4,4,4,4,4,4,4,4,4,4,4,4
47,0,4299.487305,4082.05127,4169.743652,4180.512695,4133.846191,4141.025391,4191.281738,4170.256348,4156.410156,4181.538574,4227.179199,4244.102539,4258.974121,4286.666504,0,2036,2060,0,0,678,970,4,4,4,4,4,4,4,4,4,4,4,4,4,4,4,4
48,0,4312.307617,4102.05127,4171.281738,4192.307617,4135.384277,4137.94873,4186.153809,4174.871582,4170.769043,4205.12793,4246.153809,4252.820313,4280,4303.07666,0,2037,2060,0,0,678,978,4,4,4,4,4,4,4,4,4,4,4,4,4,4,4,4
49,0,4305.641113,4102.563965,4160,4194.358887,4161.025391,4142.563965,4185.12793,4174.871582,4170.256348,4205.12793,4252.307617,4254.871582,4285.641113,4303.589844,0,2035,2060,0,0,678,987,4,4,4,4,4,4,4,4,4,4,4,4,4,4,4,4
50,0,4286.666504,4089.743408,4148.205078,4187.692383,4175.384277,4136.410156,4174.358887,4164.615234,4154.871582,4191.794922,4236.922852,4247.692383,4271.794922,4291.281738,0,2035,2060,0,0,679,0,4,4,4,4,4,4,4,4,4,4,4,4,4,4,4,4
51,0,4262.05127,4075.897217,4141.538574,4177.94873,4161.538574,4122.563965,4157.436035,4153.333008,4146.666504,4184.102539,4212.820313,4227.692383,4247.179199,4271.281738,0,2035,2060,0,0,679,3,4,4,4,4,4,4,4,4,4,4,4,4,4,4,4,4
52,0,4235.384277,4067.692139,4135.384277,4170.769043,4151.281738,4123.589844,4157.94873,4150.769043,4146.666504,4176.410156,4201.538574,4213.333008,4234.358887,4247.692383,0,2034,2060,0,0,679,10,4,4,4,4,4,4,4,4,4,4,4,4,4,4,4,4
53,0,4213.333008,4063.5896,4129.743652,4171.281738,4152.820313,4135.384277,4169.230469,4155.384277,4147.692383,4174.871582,4201.538574,4210.769043,4229.743652,4225.12793,0,2035,2059,0,0,679,18,4,4,4,4,4,4,4,4,4,4,4,4,4,4,4,4
54,0,4182.05127,4046.666504,4120,4164.102539,4151.281738,4136.410156,4168.717773,4155.897461,4149.743652,4175.897461,4192.307617,4203.07666,4215.384277,4198.974121,0,2038,2059,0,0,679,33,4,4,4,4,4,4,4,4,4,4,4,4,4,4,4,4
55,0,4140,4021.53833,4110.256348,4150.256348,4157.94873,4134.358887,4164.102539,4152.307617,4152.307617,4172.820313,4177.436035,4185.12793,4200,4166.666504,0,2038,2058,0,0,679,33,4,4,4,4,4,4,4,4,4,4,4,4,4,4,4,4
56,0,4112.307617,4017.435791,4108.205078,4149.230469,4170.769043,4140,4167.179199,4155.897461,4154.358887,4181.025391,4173.333008,4171.794922,4195.384277,4140.512695,0,2036,2061,0,0,679,42,4,4,4,4,4,4,4,4,4,4,4,4,4,4,4,4
57,0,4096.922852,4021.025635,4106.153809,4153.846191,4175.384277,4143.589844,4170.769043,4158.974121,4162.05127,4198.974121,4172.307617,4166.666504,4189.230469,4126.666504,0,2036,2062,0,0,679,50,4,4,4,4,4,4,4,4,4,4,4,4,4,4,4,4
58,0,4085.640869,4013.333252,4103.07666,4149.743652,4184.615234,4146.153809,4167.179199,4155.897461,4167.179199,4199.487305,4169.743652,4165.12793,4184.615234,4120,0,2038,2063,0,0,679,64,4,4,4,4,4,4,4,4,4,4,4,4,4,4,4,4
59,0,4076.923096,4003.076904,4104.102539,4139.487305,4189.743652,4146.666504,4165.641113,4155.384277,4161.025391,4187.179199,4166.153809,4161.025391,4184.102539,4110.769043,0,2040,2064,0,0,679,65,4,4,4,4,4,4,4,4,4,4,4,4,4,4,4,4
60,0,4067.179443,3995.384521,4104.102539,4133.846191,4164.615234,4141.025391,4166.666504,4158.974121,4155.384277,4180.512695,4156.922852,4153.333008,4172.307617,4097.94873,0,2040,2064,0,0,679,73,4,4,4,4,4,4,4,4,4,4,4,4,4,4,4,4
61,0,4059.487061,3988.205078,4102.563965,4137.436035,4155.897461,4146.666504,4170.256348,4159.487305,4155.384277,4176.922852,4150.769043,4152.820313,4160.512695,4086.666504,0,2040,2064,0,0,679,82,4,4,4,4,4,4,4,4,4,4,4,4,4,4,4,4
62,0,4054.358887,3984.102539,4100.512695,4138.461426,4190.769043,4160.512695,4173.846191,4158.461426,4156.922852,4175.897461,4153.333008,4153.846191,4161.025391,4081.53833,0,2040,2064,0,0,679,96,4,4,4,4,4,4,4,4,4,4,4,4,4,4,4,4
63,0,4050.256348,3986.153809,4102.563965,4134.358887,4195.384277,4151.281738,4169.743652,4158.461426,4156.410156,4177.436035,4153.333008,4151.794922,4165.641113,4081.025635,0,2040,2066,0,0,679,97,4,4,4,4,4,4,4,4,4,4,4,4,4,4,4,4
64,0,4047.692139,3982.05127,4103.589844,4130.769043,4164.615234,4137.94873,4167.692383,4154.871582,4152.820313,4174.871582,4152.307617,4153.333008,4163.589844,4081.025635,585,2041,2067,0,0,679,105,4,4,4,4,4,4,4,4,4,4,4,4,4,4,4,4
65,0,4045.128174,3975.897217,4102.05127,4130.769043,4178.461426,4148.717773,4176.410156,4153.333008,4154.358887,4178.461426,4151.281738,4154.358887,4153.846191,4080,799,2039,2065,0,0,679,112,4,4,4,4,4,4,4,4,4,4,4,4,4,4,4,4
66,0,4045.128174,3981.025635,4104.615234,4133.846191,4211.794922,4158.974121,4183.07666,4157.94873,4159.487305,4181.538574,4152.307617,4152.820313,4155.897461,4084.615234,805,2040,2064,0,0,679,127,4,4,4,4,4,4,4,4,4,4,4,4,4,4,4,4
67,0,4053.333252,3990.256348,4108.205078,4142.05127,4191.281738,4153.846191,4179.487305,4159.487305,4160,4174.358887,4158.974121,4155.384277,4170.256348,4090.256348,862,2039,2064,0,0,679,128,4,4,4,4,4,4,4,4,4,4,4,4,4,4,4,4
68,0,4052.307617,3983.076904,4105.641113,4139.487305,4165.12793,4152.820313,4173.846191,4155.897461,4156.410156,4180,4156.922852,4150.769043,4168.205078,4084.615234,817,2041,2063,0,0,679,136,4,4,4,4,4,4,4,4,4,4,4,4,4,4,4,4
69,0,4040.512695,3968.205078,4098.974121,4126.153809,4183.07666,4151.794922,4173.333008,4153.846191,4153.333008,4186.666504,4146.666504,4141.025391,4153.846191,4076.410156,729,2039,2065,0,0,679,145,4,4,4,4,4,4,4,4,4,4,4,4,4,4,4,4
70,0,4038.974365,3965.640869,4102.563965,4122.05127,4191.794922,4142.563965,4172.307617,4153.333008,4151.281738,4172.307617,4145.641113,4143.589844,4152.820313,4077.94873,724,2038,2063,0,0,679,158,4,4,4,4,4,4,4,4,4,4,4,4,4,4,4,4
71,0,4045.640869,3964.615234,4110.769043,4124.615234,4170.769043,4141.538574,4170.256348,4151.281738,4151.281738,4163.589844,4152.307617,4153.333008,4152.820313,4086.666504,762,2038,2063,0,0,679,160,4,4,4,4,4,4,4,4,4,4,4,4,4,4,4,4
72,0,4049.743408,3964.615234,4112.820313,4130.256348,4160.512695,4149.743652,4173.333008,4153.333008,4151.281738,4176.410156,4153.846191,4154.871582,4151.794922,4090.769043,627,2036,2063,0,0,679,168,4,4,4,4,4,4,4,4,4,4,4,4,4,4,4,4
73,0,4057.94873,3974.358887,4113.846191,4136.410156,4174.871582,4153.333008,4182.563965,4166.666504,4157.94873,4189.743652,4157.94873,4157.436035,4165.641113,4094.871582,816,2035,2062,0,0,679,175,4,4,4,4,4,4,4,4,4,4,4,4,4,4,4,4
74,0,4064.102539,3978.461426,4115.897461,4133.846191,4183.589844,4154.358887,4188.205078,4175.897461,4171.281738,4183.07666,4163.07666,4161.025391,4175.384277,4101.025391,824,2034,2061,0,0,679,190,4,4,4,4,4,4,4,4,4,4,4,4,4,4,4,4
75,0,4052.820313,3965.640869,4113.846191,4123.07666,4175.384277,4153.846191,4183.07666,4165.12793,4167.179199,4169.230469,4152.820313,4152.820313,4159.487305,4094.358887,718,2034,2061,0,0,679,191,4,4,4,4,4,4,4,4,4,4,4,4,4,4,4,4
76,0,4040,3953.333252,4112.820313,4119.487305,4162.563965,4151.281738,4181.025391,4157.94873,4155.897461,4172.307617,4143.589844,4147.179199,4148.205078,4083.076904,824,2034,2061,0,0,679,200,4,4,4,4,4,4,4,4,4,4,4,4,4,4,4,4
77,0,4042.563965,3956.410156,4116.410156,4124.615234,4166.153809,4152.307617,4186.153809,4164.102539,4165.12793,4187.692383,4148.205078,4152.307617,4152.820313,4081.025635,787,2033,2060,0,0,679,208,4,4,4,4,4,4,4,4,4,4,4,4,4,4,4,4
78,0,4048.205078,3960,4116.410156,4124.102539,4175.897461,4152.820313,4184.102539,4162.563965,4172.820313,4188.205078,4149.743652,4150.256348,4149.230469,4080.512695,824,2033,2060,0,0,679,221,4,4,4,4,4,4,4,4,4,4,4,4,4,4,4,4
79,0,4051.281982,3958.974365,4115.897461,4124.102539,4159.487305,4150.256348,4182.563965,4160.512695,4166.666504,4183.07666,4151.794922,4147.179199,4146.666504,4083.076904,718,2033,2059,0,0,679,223,4,4,4,4,4,4,4,4,4,4,4,4,4,4,4,4
80,0,4053.333252,3957.435791,4121.025391,4126.666504,4139.487305,4156.922852,4192.820313,4169.230469,4166.666504,4187.179199,4157.94873,4154.358887,4157.94873,4090.256348,824,2033,2059,0,0,679,230,4,4,4,4,4,4,4,4,4,4,4,4,4,4,4,4
81,0,4052.307617,3956.923096,4122.563965,4127.179199,4172.820313,4169.743652,4200,4173.846191,4169.743652,4188.205078,4155.384277,4154.358887,4156.922852,4085.640869,787,2032,2060,0,0,679,238,4,4,4,4,4,4,4,4,4,4,4,4,4,4,4,4
82,0,4051.281982,3962.05127,4121.025391,4130.256348,4206.153809,4168.717773,4194.871582,4164.102539,4163.07666,4184.615234,4153.333008,4143.07666,4148.717773,4078.461426,824,2034,2059,0,0,679,252,4,4,4,4,4,4,4,4,4,4,4,4,4,4,4,4
83,0,4051.281982,3962.05127,4122.563965,4135.897461,4179.487305,4157.436035,4191.794922,4156.410156,4155.384277,4185.641113,4156.410156,4141.025391,4151.794922,4083.076904,718,2034,2060,0,0,679,254,4,4,4,4,4,4,4,4,4,4,4,4,4,4,4,4
84,0,4050.769043,3960.512695,4123.589844,4136.410156,4157.436035,4153.846191,4187.692383,4153.333008,4152.307617,4183.589844,4145.12793,4142.05127,4146.666504,4080.512695,824,2034,2059,0,0,679,263,4,4,4,4,4,4,4,4,4,4,4,4,4,4,4,4
85,0,4052.307617,3967.179443,4122.563965,4135.897461,4173.846191,4163.589844,4184.615234,4149.743652,4151.794922,4174.871582,4136.922852,4135.897461,4136.410156,4073.333252,787,2037,2060,0,0,679,270,4,4,4,4,4,4,4,4,4,4,4,4,4,4,4,4
86,0,4051.281982,3957.94873,4121.538574,4134.871582,4171.281738,4172.820313,4191.794922,4151.794922,4155.384277,4170.256348,4150.769043,4137.436035,4144.615234,4077.435791,824,2036,2059,0,0,679,285,4,4,4,4,4,4,4,4,4,4,4,4,4,4,4,4
87,0,4053.333252,3953.333252,4125.12793,4133.846191,4149.743652,4164.102539,4192.307617,4150.256348,4157.94873,4175.897461,4158.461426,4142.05127,4155.384277,4083.5896,718,2037,2059,0,0,679,287,4,4,4,4,4,4,4,4,4,4,4,4,4,4,4,4
88,0,4066.153809,3993.845947,4123.589844,4147.692383,4169.743652,4156.922852,4183.07666,4141.025391,4154.871582,4179.487305,4149.230469,4135.384277,4150.256348,4081.025635,824,2037,2057,0,0,679,294,4,4,4,4,4,4,4,4,4,4,4,4,4,4,4,4
89,0,4069.743408,4025.128174,4115.384277,4158.974121,4202.05127,4162.563965,4179.487305,4135.384277,4152.307617,4173.846191,4138.461426,4120.512695,4135.384277,4070.769043,787,2038,2059,0,0,679,302,4,4,4,4,4,4,4,4,4,4,4,4,4,4,4,4
90,0,4065.640869,4013.845947,4112.307617,4154.871582,4190.256348,4159.487305,4176.922852,4137.436035,4155.384277,4168.717773,4133.333008,4115.897461,4122.563965,4065.128174,824,2040,2058,0,0,679,315,4,4,4,4,4,4,4,4,4,4,4,4,4,4,4,4
91,0,4073.333252,4011.794678,4120.512695,4161.025391,4164.102539,4156.410156,4174.871582,4136.922852,4156.410156,4169.743652,4132.820313,4123.07666,4121.538574,4073.333252,718,2039,2057,0,0,679,317,4,4,4,4,4,4,4,4,4,4,4,4,4,4,4,4
92,0,4081.025635,4021.53833,4125.12793,4171.281738,4169.743652,4165.12793,4174.358887,4136.922852,4152.307617,4166.153809,4137.436035,4127.692383,4126.666504,4079.487061,824,2040,2058,0,0,679,326,4,4,4,4,4,4,4,4,4,4,4,4,4,4,4,4
93,0,4076.410156,4010.256348,4116.922852,4160.512695,4175.897461,4159.487305,4171.794922,4139.487305,4152.307617,4160,4140.512695,4124.615234,4125.641113,4075.897217,787,2042,2059,0,0,679,333,4,4,4,4,4,4,4,4,4,4,4,4,4,4,4,4
94,0,4072.820313,4001.53833,4113.846191,4152.307617,4157.436035,4146.666504,4173.846191,4138.461426,4153.333008,4163.07666,4135.384277,4120.512695,4116.922852,4070.256348,824,2042,2058,0,0,679,348,4,4,4,4,4,4,4,4,4,4,4,4,4,4,4,4
95,0,4074.358887,4003.5896,4121.538574,4156.922852,4162.563965,4158.974121,4185.641113,4146.153809,4152.820313,4170.769043,4127.179199,4122.05127,4113.333008,4067.179443,718,2044,2058,0,0,679,349,4,4,4,4,4,4,4,4,4,4,4,4,4,4,4,4
96,0,4075.384521,4001.025635,4126.153809,4153.333008,4180.512695,4170.256348,4187.692383,4154.358887,4152.820313,4172.307617,4126.153809,4125.641113,4116.410156,4069.230713,824,2044,2057,0,0,679,357,4,4,4,4,4,4,4,4,4,4,4,4,4,4,4,4
97,0,4075.384521,3998.974365,4123.589844,4147.692383,4171.794922,4155.897461,4182.05127,4146.666504,4152.820313,4168.205078,4130.256348,4128.205078,4117.436035,4073.333252,787,2046,2057,0,0,679,365,4,4,4,4,4,4,4,4,4,4,4,4,4,4,4,4
98,0,4076.923096,4002.05127,4127.692383,4154.358887,4169.230469,4149.230469,4184.102539,4137.436035,4151.794922,4167.179199,4134.358887,4131.794922,4116.922852,4075.384521,824,2048,2059,0,0,679,378,4,4,4,4,4,4,4,4,4,4,4,4,4,4,4,4
99,0,4081.025635,4006.666504,4132.820313,4161.025391,4188.205078,4161.538574,4185.12793,4140.512695,4151.281738,4170.769043,4138.974121,4135.384277,4122.563965,4078.461426,718,2048,2058,0,0,679,380,4,4,4,4,4,4,4,4,4,4,4,4,4,4,4,4
100,0,4081.53833,4003.5896,4130.256348,4156.410156,4186.153809,4168.717773,4183.589844,4142.563965,4151.281738,4171.281738,4142.05127,4135.897461,4124.615234,4082.563965,824,2046,2057,0,0,679,389,4,4,4,4,4,4,4,4,4,4,4,4,4,4,4,4
101,0,4080.512695,4001.025635,4128.205078,4152.307617,4169.230469,4165.641113,4185.12793,4142.05127,4153.846191,4168.205078,4146.153809,4136.922852,4127.179199,4084.102539,787,2047,2058,0,0,679,396,4,4,4,4,4,4,4,4,4,4,4,4,4,4,4,4
102,0,4082.563965,4006.153809,4129.743652,4162.05127,4172.820313,4166.153809,4186.666504,4145.641113,4157.436035,4170.769043,4154.871582,4142.563965,4137.94873,4092.820313,824,2050,2057,0,0,679,410,4,4,4,4,4,4,4,4,4,4,4,4,4,4,4,4
103,0,4084.102539,4008.205078,4126.666504,4167.179199,4182.05127,4172.307617,4187.179199,4148.205078,4159.487305,4178.461426,4156.410156,4144.102539,4137.94873,4097.436035,718,2048,2056,0,0,679,412,4,4,4,4,4,4,4,4,4,4,4,4,4,4,4,4
104,0,4083.5896,4003.5896,4123.07666,4157.94873,4179.487305,4172.307617,4184.102539,4145.641113,4156.410156,4177.94873,4145.12793,4134.358887,4125.641113,4083.5896,824,2048,2054,0,0,679,420,4,4,4,4,4,4,4,4,4,4,4,4,4,4,4,4
105,0,4088.205078,4004.102539,4128.717773,4158.461426,4163.07666,4161.025391,4178.461426,4145.12793,4154.871582,4172.307617,4139.487305,4128.717773,4121.538574,4076.410156,787,2049,2056,0,0,679,428,4,4,4,4,4,4,4,4,4,4,4,4,4,4,4,4
106,0,4098.461426,4007.692139,4136.410156,4168.717773,4163.07666,4157.436035,4180,4149.230469,4162.563965,4168.205078,4143.589844,4131.794922,4121.538574,4085.128174,824,2048,2054,0,0,679,444,4,4,4,4,4,4,4,4,4,4,4,4,4,4,4,4
107,0,4107.179199,4013.333252,4136.410156,4170.769043,4189.743652,4169.743652,4185.641113,4154.871582,4168.205078,4173.333008,4152.307617,4137.94873,4123.589844,4091.794678,718,2048,2053,0,0,679,444,4,4,4,4,4,4,4,4,4,4,4,4,4,4,4,4
108,0,4105.641113,4015.384521,4130.769043,4166.153809,4201.538574,4171.794922,4186.153809,4154.358887,4160.512695,4185.641113,4161.025391,4138.461426,4133.846191,4093.333252,824,2048,2052,0,0,679,451,4,4,4,4,4,4,4,4,4,4,4,4,4,4,4,4
109,0,4097.94873,4012.307617,4130.256348,4164.102539,4186.153809,4158.461426,4184.102539,4147.692383,4153.333008,4180.512695,4168.717773,4140.512695,4142.05127,4096.410156,787,2047,2053,0,0,679,459,4,4,4,4,4,4,4,4,4,4,4,4,4,4,4,4
110,0,4096.410156,4011.794678,4131.794922,4165.12793,4176.410156,4157.436035,4185.12793,4147.179199,4156.922852,4174.871582,4171.281738,4149.230469,4141.025391,4098.974121,824,2047,2053,0,0,679,473,4,4,4,4,4,4,4,4,4,4,4,4,4,4,4,4
111,0,4098.461426,4009.230713,4131.794922,4166.666504,4188.717773,4167.179199,4185.12793,4149.743652,4158.974121,4186.666504,4161.025391,4149.230469,4135.897461,4095.897217,718,2045,2051,0,0,679,475,4,4,4,4,4,4,4,4,4,4,4,4,4,4,4,4
112,0,4096.922852,4002.563965,4135.384277,4162.563965,4183.07666,4163.07666,4184.102539,4141.538574,4154.358887,4184.102539,4156.922852,4146.153809,4132.820313,4094.871582,824,2044,2050,0,0,679,484,4,4,4,4,4,4,4,4,4,4,4,4,4,4,4,4
113,0,4096.410156,4002.05127,4139.487305,4155.897461,4157.436035,4152.820313,4185.12793,4137.94873,4150.256348,4168.205078,4167.692383,4150.256348,4136.410156,4100,787,2043,2049,0,0,679,491,4,4,4,4,4,4,4,4,4,4,4,4,4,4,4,4
114,0,4100.512695,4003.5896,4134.871582,4155.384277,4166.666504,4156.410156,4184.615234,4148.717773,4156.922852,4177.94873,4170.769043,4154.871582,4138.974121,4106.666504,824,2045,2051,0,0,679,507,4,4,4,4,4,4,4,4,4,4,4,4,4,4,4,4
115,0,4102.05127,3998.974365,4129.743652,4157.94873,4202.05127,4168.205078,4184.615234,4157.436035,4168.717773,4201.538574,4166.666504,4153.333008,4138.974121,4106.153809,718,2045,2050,0,0,679,507,4,4,4,4,4,4,4,4,4,4,4,4,4,4,4,4
116,0,4097.94873,4001.025635,4131.281738,4158.461426,4199.487305,4171.281738,4184.615234,4154.871582,4169.230469,4201.025391,4164.102539,4152.307617,4139.487305,4102.563965,824,2047,2048,0,0,679,514,4,4,4,4,4,4,4,4,4,4,4,4,4,4,4,4
117,0,4098.461426,4001.025635,4132.307617,4155.897461,4176.410156,4165.12793,4184.615234,4154.871582,4165.641113,4185.641113,4162.563965,4153.846191,4138.461426,4104.102539,787,2045,2051,0,0,679,522,4,4,4,4,4,4,4,4,4,4,4,4,4,4,4,4
118,0,4105.12793,3995.897217,4133.846191,4154.358887,4175.384277,4160.512695,4184.102539,4156.922852,4170.256348,4183.589844,4167.692383,4154.871582,4141.025391,4109.743652,824,2043,2051,0,0,679,536,4,4,4,4,4,4,4,4,4,4,4,4,4,4,4,4
119,0,4107.692383,3997.94873,4137.94873,4154.358887,4176.410156,4165.12793,4186.666504,4155.897461,4170.256348,4194.358887,4172.820313,4156.410156,4145.12793,4110.769043,718,2044,2051,0,0,679,538,4,4,4,4,4,4,4,4,4,4,4,4,4,4,4,4
120,0,4104.102539,3994.871582,4137.94873,4150.769043,4166.153809,4167.692383,4190.256348,4155.897461,4165.641113,4197.94873,4168.717773,4156.410156,4142.05127,4109.743652,824,2043,2050,0,0,679,546,4,4,4,4,4,4,4,4,4,4,4,4,4,4,4,4
121,0,4113.846191,3993.333252,4140,4150.256348,4152.820313,4154.871582,4184.615234,4151.794922,4165.641113,4185.641113,4172.307617,4164.615234,4146.153809,4119.487305,787,2044,2050,0,0,679,554,4,4,4,4,4,4,4,4,4,4,4,4,4,4,4,4
122,0,4127.179199,4000,4145.12793,4156.922852,4150.769043,4144.102539,4174.871582,4142.563965,4161.538574,4175.384277,4176.410156,4173.333008,4151.281738,4126.666504,824,2043,2052,0,0,679,570,4,4,4,4,4,4,4,4,4,4,4,4,4,4,4,4
123,0,4120.512695,3991.281982,4142.563965,4155.384277,4157.94873,4149.743652,4171.794922,4136.410156,4152.820313,4175.897461,4159.487305,4162.05127,4132.307617,4113.333008,718,2041,2051,0,0,679,570,4,4,4,4,4,4,4,4,4,4,4,4,4,4,4,4
124,0,4117.436035,3980.512695,4141.025391,4152.820313,4154.871582,4151.281738,4172.307617,4136.410156,4152.307617,4182.05127,4149.230469,4150.769043,4118.461426,4107.179199,824,2044,2051,0,0,679,577,4,4,4,4,4,4,4,4,4,4,4,4,4,4,4,4
125,0,4140.512695,3987.692139,4148.717773,4154.871582,4154.358887,4146.666504,4168.717773,4135.384277,4155.897461,4179.487305,4163.07666,4163.07666,4141.025391,4130.256348,787,2043,2052,0,0,679,585,4,4,4,4,4,4,4,4,4,4,4,4,4,4,4,4
126,0,4173.333008,3992.307617,4155.897461,4155.384277,4165.12793,4148.205078,4170.769043,4134.358887,4153.333008,4172.307617,4184.615234,4187.692383,4169.743652,4166.153809,824,2042,2052,0,0,679,599,4,4,4,4,4,4,4,4,4,4,4,4,4,4,4,4
127,0,4207.179199,3993.333252,4164.102539,4162.563965,4162.05127,4152.307617,4180,4147.179199,4158.461426,4181.538574,4207.179199,4209.230469,4190.256348,4204.102539,718,2041,2051,0,0,679,602,4,4,4,4,4,4,4,4,4,4,4,4,4,4,4,4
128,0,4242.563965,4001.025635,4175.384277,4171.794922,4144.102539,4153.846191,4186.153809,4158.461426,4166.153809,4192.820313,4222.05127,4226.153809,4211.281738,4237.94873,824,2043,2053,0,0,679,609,4,4,4,4,4,4,4,4,4,4,4,4,4,4,4,4
0,0,4269.230469,3998.974365,4180.512695,4169.230469,4136.410156,4150.769043,4177.94873,4149.743652,4155.384277,4187.692383,4220.512695,4231.794922,4218.461426,4259.487305,585,2044,2053,0,0,679,617,4,4,4,4,4,4,4,4,4,4,4,4,4,4,4,4
1,0,4295.384277,4005.128174,4186.153809,4170.256348,4134.871582,4143.589844,4170.256348,4141.025391,4135.897461,4172.820313,4222.05127,4238.461426,4224.615234,4280.512695,799,2045,2052,0,0,679,633,4,4,4,4,4,4,4,4,4,4,4,4,4,4,4,4
2,0,4326.153809,4031.794678,4195.384277,4186.666504,4133.846191,4143.589844,4178.974121,4150.256348,4138.461426,4160.512695,4243.07666,4256.410156,4245.12793,4310.256348,805,2047,2054,0,0,679,633,4,4,4,4,4,4,4,4,4,4,4,4,4,4,4,4
3,0,4342.563965,4048.205078,4194.871582,4190.256348,4142.05127,4151.794922,4185.12793,4156.922852,4151.794922,4168.205078,4249.743652,4263.07666,4252.820313,4326.666504,862,2048,2054,0,0,679,640,4,4,4,4,4,4,4,4,4,4,4,4,4,4,4,4
4,0,4349.230469,4053.333252,4193.846191,4186.153809,4141.538574,4153.846191,4179.487305,4150.769043,4152.307617,4187.179199,4235.897461,4256.922852,4248.205078,4328.717773,817,2048,2054,0,0,679,648,4,4,4,4,4,4,4,4,4,4,4,4,4,4,4,4
5,0,4365.641113,4063.5896,4203.589844,4196.410156,4133.846191,4149.230469,4178.461426,4153.333008,4153.333008,4193.846191,4235.897461,4262.05127,4258.461426,4337.436035,729,2049,2055,0,0,679,662,4,4,4,4,4,4,4,4,4,4,4,4,4,4,4,4
6,0,4373.846191,4066.666504,4202.563965,4197.436035,4144.615234,4145.12793,4176.410156,4157.436035,4156.922852,4175.897461,4248.205078,4267.692383,4265.641113,4341.538574,727,2049,2054,0,0,679,664,4,4,4,4,4,4,4,4,4,4,4,4,4,4,4,4
7,0,4362.563965,4060,4189.743652,4185.641113,4157.94873,4142.05127,4172.820313,4154.871582,4154.871582,4159.487305,4249.230469,4261.025391,4253.846191,4332.307617,764,2047,2052,0,0,679,672,4,4,4,4,4,4,4,4,4,4,4,4,4,4,4,4
